Sample 1
4/14/2025 4:17 PM
Wavelength (nm)	10mm Absorbance
//WLCalib: Shift 	0.11000	
//WLCalib: 261S 	0.08000	
//WLCalib: 362S 	-0.10000	
//WLCalib: 484S 	-0.09000	
//WLCalib: 529S 	0.30000	
//WLCalib: 823S 	-0.07000	
//QSpecEnd: 
190.0	10.588
190.5	11.713
191.0	12.923
191.5	13.618
192.0	14.446
192.5	15.427
193.0	16.063
193.5	16.403
194.0	16.594
194.5	16.406
195.0	15.901
195.5	15.080
196.0	14.283
196.5	13.472
197.0	12.913
197.5	12.343
198.0	11.779
198.5	11.278
199.0	10.845
199.5	10.371
200.0	9.940
200.5	9.526
201.0	9.138
201.5	8.765
202.0	8.455
202.5	8.178
203.0	7.958
203.5	7.785
204.0	7.646
204.5	7.524
205.0	7.446
205.5	7.366
206.0	7.282
206.5	7.225
207.0	7.182
207.5	7.137
208.0	7.102
208.5	7.075
209.0	7.043
209.5	7.021
210.0	6.996
210.5	6.941
211.0	6.916
211.5	6.896
212.0	6.874
212.5	6.851
213.0	6.830
213.5	6.816
214.0	6.810
214.5	6.796
215.0	6.779
215.5	6.736
216.0	6.722
216.5	6.703
217.0	6.689
217.5	6.674
218.0	6.658
218.5	6.643
219.0	6.628
219.5	6.601
220.0	6.590
220.5	6.564
221.0	6.558
221.5	6.568
222.0	6.569
222.5	6.564
223.0	6.550
223.5	6.537
224.0	6.527
224.5	6.509
225.0	6.492
225.5	6.473
226.0	6.460
226.5	6.447
227.0	6.419
227.5	6.393
228.0	6.369
228.5	6.355
229.0	6.339
229.5	6.324
230.0	6.317
230.5	6.317
231.0	6.318
231.5	6.325
232.0	6.324
232.5	6.326
233.0	6.326
233.5	6.323
234.0	6.318
234.5	6.316
235.0	6.313
235.5	6.310
236.0	6.313
236.5	6.314
237.0	6.311
237.5	6.310
238.0	6.307
238.5	6.306
239.0	6.308
239.5	6.307
240.0	6.302
240.5	6.298
241.0	6.297
241.5	6.293
242.0	6.290
242.5	6.289
243.0	6.292
243.5	6.302
244.0	6.310
244.5	6.314
245.0	6.312
245.5	6.310
246.0	6.307
246.5	6.300
247.0	6.291
247.5	6.284
248.0	6.286
248.5	6.297
249.0	6.308
249.5	6.318
250.0	6.329
250.5	6.336
251.0	6.336
251.5	6.338
252.0	6.337
252.5	6.335
253.0	6.332
253.5	6.341
254.0	6.346
254.5	6.353
255.0	6.360
255.5	6.357
256.0	6.348
256.5	6.344
257.0	6.335
257.5	6.316
258.0	6.295
258.5	6.279
259.0	6.262
259.5	6.242
260.0	6.229
260.5	6.217
261.0	6.218
261.5	6.222
262.0	6.228
262.5	6.233
263.0	6.234
263.5	6.231
264.0	6.223
264.5	6.207
265.0	6.195
265.5	6.183
266.0	6.170
266.5	6.152
267.0	6.137
267.5	6.127
268.0	6.117
268.5	6.112
269.0	6.107
269.5	6.096
270.0	6.087
270.5	6.069
271.0	6.045
271.5	6.017
272.0	5.999
272.5	5.976
273.0	5.961
273.5	5.947
274.0	5.931
274.5	5.918
275.0	5.906
275.5	5.890
276.0	5.878
276.5	5.866
277.0	5.854
277.5	5.835
278.0	5.820
278.5	5.801
279.0	5.785
279.5	5.770
280.0	5.752
280.5	5.734
281.0	5.717
281.5	5.694
282.0	5.676
282.5	5.660
283.0	5.646
283.5	5.640
284.0	5.634
284.5	5.625
285.0	5.613
285.5	5.599
286.0	5.580
286.5	5.561
287.0	5.549
287.5	5.531
288.0	5.523
288.5	5.520
289.0	5.515
289.5	5.508
290.0	5.501
290.5	5.491
291.0	5.482
291.5	5.474
292.0	5.468
292.5	5.461
293.0	5.463
293.5	5.458
294.0	5.451
294.5	5.449
295.0	5.447
295.5	5.440
296.0	5.430
296.5	5.425
297.0	5.422
297.5	5.422
298.0	5.423
298.5	5.421
299.0	5.424
299.5	5.438
300.0	5.444
300.5	5.445
301.0	5.445
301.5	5.450
302.0	5.454
302.5	5.457
303.0	5.454
303.5	5.450
304.0	5.455
304.5	5.458
305.0	5.461
305.5	5.461
306.0	5.462
306.5	5.464
307.0	5.464
307.5	5.456
308.0	5.448
308.5	5.444
309.0	5.447
309.5	5.443
310.0	5.445
310.5	5.444
311.0	5.449
311.5	5.455
312.0	5.457
312.5	5.453
313.0	5.454
313.5	5.450
314.0	5.448
314.5	5.444
315.0	5.441
315.5	5.442
316.0	5.449
316.5	5.456
317.0	5.458
317.5	5.462
318.0	5.461
318.5	5.458
319.0	5.461
319.5	5.466
320.0	5.466
320.5	5.470
321.0	5.477
321.5	5.478
322.0	5.479
322.5	5.478
323.0	5.471
323.5	5.468
324.0	5.471
324.5	5.472
325.0	5.469
325.5	5.472
326.0	5.478
326.5	5.476
327.0	5.478
327.5	5.477
328.0	5.478
328.5	5.480
329.0	5.482
329.5	5.484
330.0	5.482
330.5	5.485
331.0	5.487
331.5	5.481
332.0	5.478
332.5	5.477
333.0	5.480
333.5	5.481
334.0	5.483
334.5	5.491
335.0	5.492
335.5	5.493
336.0	5.492
336.5	5.484
337.0	5.476
337.5	5.471
338.0	5.471
338.5	5.471
339.0	5.471
339.5	5.475
340.0	5.480
340.5	5.477
341.0	5.476
341.5	5.470
342.0	5.470
342.5	5.471
343.0	5.475
343.5	5.476
344.0	5.474
344.5	5.474
345.0	5.480
345.5	5.477
346.0	5.477
346.5	5.471
347.0	5.474
347.5	5.473
348.0	5.476
348.5	5.476
349.0	5.474
349.5	5.475
350.0	5.481
350.5	5.488
351.0	5.491
351.5	5.491
352.0	5.497
352.5	5.495
353.0	5.493
353.5	5.485
354.0	5.476
354.5	5.471
355.0	5.462
355.5	5.455
356.0	5.449
356.5	5.444
357.0	5.444
357.5	5.437
358.0	5.434
358.5	5.432
359.0	5.431
359.5	5.431
360.0	5.429
360.5	5.423
361.0	5.418
361.5	5.412
362.0	5.406
362.5	5.398
363.0	5.394
363.5	5.394
364.0	5.392
364.5	5.390
365.0	5.392
365.5	5.389
366.0	5.386
366.5	5.389
367.0	5.386
367.5	5.383
368.0	5.386
368.5	5.385
369.0	5.385
369.5	5.385
370.0	5.382
370.5	5.381
371.0	5.376
371.5	5.373
372.0	5.367
372.5	5.365
373.0	5.363
373.5	5.360
374.0	5.363
374.5	5.360
375.0	5.359
375.5	5.355
376.0	5.344
376.5	5.334
377.0	5.326
377.5	5.316
378.0	5.302
378.5	5.289
379.0	5.286
379.5	5.276
380.0	5.271
380.5	5.259
381.0	5.248
381.5	5.238
382.0	5.228
382.5	5.214
383.0	5.202
383.5	5.192
384.0	5.189
384.5	5.178
385.0	5.172
385.5	5.166
386.0	5.159
386.5	5.149
387.0	5.145
387.5	5.141
388.0	5.139
388.5	5.137
389.0	5.137
389.5	5.138
390.0	5.141
390.5	5.141
391.0	5.141
391.5	5.143
392.0	5.152
392.5	5.159
393.0	5.170
393.5	5.181
394.0	5.194
394.5	5.208
395.0	5.221
395.5	5.234
396.0	5.251
396.5	5.273
397.0	5.297
397.5	5.321
398.0	5.352
398.5	5.376
399.0	5.404
399.5	5.431
400.0	5.461
400.5	5.491
401.0	5.522
401.5	5.556
402.0	5.588
402.5	5.621
403.0	5.654
403.5	5.686
404.0	5.723
404.5	5.755
405.0	5.789
405.5	5.829
406.0	5.868
406.5	5.906
407.0	5.945
407.5	5.987
408.0	6.030
408.5	6.078
409.0	6.121
409.5	6.160
410.0	6.200
410.5	6.245
411.0	6.287
411.5	6.324
412.0	6.361
412.5	6.403
413.0	6.445
413.5	6.492
414.0	6.534
414.5	6.575
415.0	6.623
415.5	6.667
416.0	6.708
416.5	6.742
417.0	6.771
417.5	6.803
418.0	6.836
418.5	6.874
419.0	6.913
419.5	6.952
420.0	6.992
420.5	7.025
421.0	7.058
421.5	7.084
422.0	7.111
422.5	7.140
423.0	7.167
423.5	7.197
424.0	7.223
424.5	7.249
425.0	7.274
425.5	7.295
426.0	7.319
426.5	7.346
427.0	7.375
427.5	7.404
428.0	7.431
428.5	7.455
429.0	7.477
429.5	7.501
430.0	7.524
430.5	7.542
431.0	7.566
431.5	7.592
432.0	7.611
432.5	7.633
433.0	7.650
433.5	7.662
434.0	7.678
434.5	7.692
435.0	7.706
435.5	7.717
436.0	7.733
436.5	7.749
437.0	7.761
437.5	7.773
438.0	7.786
438.5	7.798
439.0	7.809
439.5	7.823
440.0	7.829
440.5	7.835
441.0	7.843
441.5	7.854
442.0	7.864
442.5	7.871
443.0	7.882
443.5	7.891
444.0	7.903
444.5	7.914
445.0	7.917
445.5	7.922
446.0	7.929
446.5	7.941
447.0	7.948
447.5	7.955
448.0	7.962
448.5	7.969
449.0	7.977
449.5	7.981
450.0	7.986
450.5	7.993
451.0	8.001
451.5	8.007
452.0	8.006
452.5	8.013
453.0	8.017
453.5	8.021
454.0	8.028
454.5	8.033
455.0	8.033
455.5	8.036
456.0	8.034
456.5	8.029
457.0	8.028
457.5	8.033
458.0	8.034
458.5	8.040
459.0	8.044
459.5	8.043
460.0	8.038
460.5	8.038
461.0	8.036
461.5	8.034
462.0	8.037
462.5	8.041
463.0	8.043
463.5	8.046
464.0	8.042
464.5	8.038
465.0	8.036
465.5	8.037
466.0	8.035
466.5	8.033
467.0	8.038
467.5	8.040
468.0	8.038
468.5	8.039
469.0	8.035
469.5	8.033
470.0	8.030
470.5	8.024
471.0	8.012
471.5	8.003
472.0	8.001
472.5	7.996
473.0	7.990
473.5	7.987
474.0	7.983
474.5	7.981
475.0	7.975
475.5	7.962
476.0	7.948
476.5	7.938
477.0	7.929
477.5	7.922
478.0	7.917
478.5	7.911
479.0	7.906
479.5	7.903
480.0	7.891
480.5	7.877
481.0	7.865
481.5	7.851
482.0	7.828
482.5	7.807
483.0	7.790
483.5	7.771
484.0	7.758
484.5	7.743
485.0	7.729
485.5	7.721
486.0	7.716
486.5	7.702
487.0	7.685
487.5	7.668
488.0	7.650
488.5	7.632
489.0	7.613
489.5	7.594
490.0	7.576
490.5	7.562
491.0	7.544
491.5	7.521
492.0	7.504
492.5	7.487
493.0	7.470
493.5	7.455
494.0	7.436
494.5	7.414
495.0	7.390
495.5	7.361
496.0	7.329
496.5	7.298
497.0	7.270
497.5	7.240
498.0	7.217
498.5	7.194
499.0	7.169
499.5	7.140
500.0	7.114
500.5	7.082
501.0	7.052
501.5	7.018
502.0	6.984
502.5	6.945
503.0	6.912
503.5	6.876
504.0	6.845
504.5	6.811
505.0	6.781
505.5	6.747
506.0	6.711
506.5	6.674
507.0	6.632
507.5	6.594
508.0	6.556
508.5	6.519
509.0	6.481
509.5	6.443
510.0	6.404
510.5	6.364
511.0	6.329
511.5	6.292
512.0	6.249
512.5	6.209
513.0	6.168
513.5	6.130
514.0	6.083
514.5	6.041
515.0	5.995
515.5	5.950
516.0	5.910
516.5	5.866
517.0	5.818
517.5	5.776
518.0	5.735
518.5	5.691
519.0	5.651
519.5	5.610
520.0	5.570
520.5	5.528
521.0	5.491
521.5	5.453
522.0	5.417
522.5	5.379
523.0	5.336
523.5	5.282
524.0	5.235
524.5	5.182
525.0	5.134
525.5	5.087
526.0	5.043
526.5	4.999
527.0	4.956
527.5	4.909
528.0	4.861
528.5	4.816
529.0	4.779
529.5	4.743
530.0	4.709
530.5	4.679
531.0	4.646
531.5	4.610
532.0	4.569
532.5	4.532
533.0	4.492
533.5	4.457
534.0	4.422
534.5	4.382
535.0	4.345
535.5	4.307
536.0	4.269
536.5	4.232
537.0	4.196
537.5	4.164
538.0	4.132
538.5	4.101
539.0	4.070
539.5	4.033
540.0	3.988
540.5	3.944
541.0	3.903
541.5	3.861
542.0	3.820
542.5	3.786
543.0	3.759
543.5	3.735
544.0	3.716
544.5	3.694
545.0	3.668
545.5	3.641
546.0	3.611
546.5	3.578
547.0	3.544
547.5	3.513
548.0	3.486
548.5	3.464
549.0	3.436
549.5	3.413
550.0	3.388
550.5	3.361
551.0	3.329
551.5	3.298
552.0	3.267
552.5	3.238
553.0	3.212
553.5	3.187
554.0	3.162
554.5	3.144
555.0	3.120
555.5	3.095
556.0	3.068
556.5	3.040
557.0	3.012
557.5	2.987
558.0	2.964
558.5	2.938
559.0	2.921
559.5	2.898
560.0	2.874
560.5	2.848
561.0	2.822
561.5	2.792
562.0	2.770
562.5	2.749
563.0	2.730
563.5	2.711
564.0	2.694
564.5	2.673
565.0	2.654
565.5	2.628
566.0	2.607
566.5	2.582
567.0	2.562
567.5	2.539
568.0	2.520
568.5	2.502
569.0	2.485
569.5	2.472
570.0	2.453
570.5	2.431
571.0	2.415
571.5	2.397
572.0	2.378
572.5	2.358
573.0	2.342
573.5	2.324
574.0	2.307
574.5	2.294
575.0	2.275
575.5	2.256
576.0	2.241
576.5	2.223
577.0	2.208
577.5	2.194
578.0	2.183
578.5	2.166
579.0	2.152
579.5	2.138
580.0	2.121
580.5	2.104
581.0	2.090
581.5	2.074
582.0	2.061
582.5	2.046
583.0	2.039
583.5	2.028
584.0	2.017
584.5	2.003
585.0	1.988
585.5	1.972
586.0	1.958
586.5	1.943
587.0	1.928
587.5	1.912
588.0	1.900
588.5	1.889
589.0	1.876
589.5	1.864
590.0	1.848
590.5	1.833
591.0	1.819
591.5	1.807
592.0	1.793
592.5	1.779
593.0	1.768
593.5	1.758
594.0	1.751
594.5	1.746
595.0	1.735
595.5	1.727
596.0	1.715
596.5	1.707
597.0	1.692
597.5	1.681
598.0	1.671
598.5	1.660
599.0	1.652
599.5	1.641
600.0	1.630
600.5	1.622
601.0	1.615
601.5	1.609
602.0	1.595
602.5	1.584
603.0	1.572
603.5	1.562
604.0	1.550
604.5	1.538
605.0	1.529
605.5	1.523
606.0	1.520
606.5	1.514
607.0	1.505
607.5	1.501
608.0	1.492
608.5	1.485
609.0	1.472
609.5	1.460
610.0	1.447
610.5	1.438
611.0	1.431
611.5	1.428
612.0	1.426
612.5	1.429
613.0	1.425
613.5	1.421
614.0	1.409
614.5	1.400
615.0	1.394
615.5	1.389
616.0	1.386
616.5	1.385
617.0	1.380
617.5	1.375
618.0	1.365
618.5	1.357
619.0	1.344
619.5	1.335
620.0	1.329
620.5	1.323
621.0	1.316
621.5	1.307
622.0	1.298
622.5	1.294
623.0	1.289
623.5	1.280
624.0	1.271
624.5	1.266
625.0	1.265
625.5	1.262
626.0	1.256
626.5	1.246
627.0	1.244
627.5	1.239
628.0	1.235
628.5	1.224
629.0	1.219
629.5	1.212
630.0	1.209
630.5	1.205
631.0	1.204
631.5	1.199
632.0	1.191
632.5	1.188
633.0	1.183
633.5	1.176
634.0	1.164
634.5	1.158
635.0	1.148
635.5	1.143
636.0	1.140
636.5	1.137
637.0	1.130
637.5	1.134
638.0	1.133
638.5	1.132
639.0	1.124
639.5	1.120
640.0	1.114
640.5	1.109
641.0	1.102
641.5	1.098
642.0	1.090
642.5	1.088
643.0	1.078
643.5	1.073
644.0	1.070
644.5	1.065
645.0	1.065
645.5	1.062
646.0	1.057
646.5	1.052
647.0	1.042
647.5	1.036
648.0	1.028
648.5	1.029
649.0	1.028
649.5	1.020
650.0	1.018
650.5	1.015
651.0	1.009
651.5	0.999
652.0	0.988
652.5	0.982
653.0	0.976
653.5	0.973
654.0	0.968
654.5	0.965
655.0	0.965
655.5	0.967
656.0	0.967
656.5	0.969
657.0	0.969
657.5	0.965
658.0	0.959
658.5	0.952
659.0	0.948
659.5	0.942
660.0	0.940
660.5	0.939
661.0	0.939
661.5	0.940
662.0	0.932
662.5	0.924
663.0	0.916
663.5	0.910
664.0	0.907
664.5	0.901
665.0	0.902
665.5	0.901
666.0	0.898
666.5	0.892
667.0	0.888
667.5	0.882
668.0	0.874
668.5	0.871
669.0	0.867
669.5	0.867
670.0	0.866
670.5	0.862
671.0	0.859
671.5	0.858
672.0	0.852
672.5	0.845
673.0	0.837
673.5	0.831
674.0	0.827
674.5	0.829
675.0	0.825
675.5	0.822
676.0	0.823
676.5	0.827
677.0	0.825
677.5	0.828
678.0	0.826
678.5	0.816
679.0	0.812
679.5	0.805
680.0	0.796
680.5	0.793
681.0	0.788
681.5	0.781
682.0	0.778
682.5	0.777
683.0	0.772
683.5	0.764
684.0	0.761
684.5	0.760
685.0	0.766
685.5	0.770
686.0	0.772
686.5	0.775
687.0	0.777
687.5	0.776
688.0	0.775
688.5	0.772
689.0	0.765
689.5	0.761
690.0	0.754
690.5	0.746
691.0	0.740
691.5	0.737
692.0	0.729
692.5	0.730
693.0	0.733
693.5	0.738
694.0	0.737
694.5	0.734
695.0	0.729
695.5	0.727
696.0	0.722
696.5	0.721
697.0	0.717
697.5	0.714
698.0	0.709
698.5	0.705
699.0	0.694
699.5	0.687
700.0	0.681
700.5	0.677
701.0	0.669
701.5	0.674
702.0	0.675
702.5	0.679
703.0	0.682
703.5	0.689
704.0	0.691
704.5	0.694
705.0	0.690
705.5	0.687
706.0	0.681
706.5	0.682
707.0	0.679
707.5	0.680
708.0	0.677
708.5	0.679
709.0	0.680
709.5	0.680
710.0	0.675
710.5	0.674
711.0	0.670
711.5	0.666
712.0	0.659
712.5	0.659
713.0	0.652
713.5	0.651
714.0	0.657
714.5	0.656
715.0	0.655
715.5	0.651
716.0	0.646
716.5	0.643
717.0	0.635
717.5	0.629
718.0	0.620
718.5	0.616
719.0	0.614
719.5	0.612
720.0	0.608
720.5	0.610
721.0	0.619
721.5	0.620
722.0	0.621
722.5	0.620
723.0	0.617
723.5	0.614
724.0	0.612
724.5	0.609
725.0	0.604
725.5	0.605
726.0	0.606
726.5	0.602
727.0	0.600
727.5	0.596
728.0	0.588
728.5	0.588
729.0	0.587
729.5	0.585
730.0	0.582
730.5	0.581
731.0	0.584
731.5	0.582
732.0	0.573
732.5	0.570
733.0	0.565
733.5	0.560
734.0	0.559
734.5	0.554
735.0	0.551
735.5	0.552
736.0	0.550
736.5	0.549
737.0	0.548
737.5	0.555
738.0	0.558
738.5	0.560
739.0	0.563
739.5	0.557
740.0	0.554
740.5	0.550
741.0	0.545
741.5	0.541
742.0	0.538
742.5	0.545
743.0	0.548
743.5	0.553
744.0	0.553
744.5	0.548
745.0	0.546
745.5	0.543
746.0	0.537
746.5	0.526
747.0	0.519
747.5	0.520
748.0	0.520
748.5	0.525
749.0	0.518
749.5	0.513
750.0	0.512
750.5	0.513
751.0	0.510
751.5	0.507
752.0	0.504
752.5	0.508
753.0	0.513
753.5	0.511
754.0	0.506
754.5	0.507
755.0	0.507
755.5	0.510
756.0	0.505
756.5	0.503
757.0	0.500
757.5	0.506
758.0	0.507
758.5	0.503
759.0	0.501
759.5	0.499
760.0	0.491
760.5	0.487
761.0	0.478
761.5	0.473
762.0	0.472
762.5	0.477
763.0	0.479
763.5	0.480
764.0	0.480
764.5	0.480
765.0	0.476
765.5	0.475
766.0	0.474
766.5	0.474
767.0	0.471
767.5	0.470
768.0	0.467
768.5	0.464
769.0	0.462
769.5	0.466
770.0	0.470
770.5	0.475
771.0	0.482
771.5	0.483
772.0	0.478
772.5	0.472
773.0	0.461
773.5	0.447
774.0	0.436
774.5	0.431
775.0	0.429
775.5	0.432
776.0	0.440
776.5	0.445
777.0	0.452
777.5	0.456
778.0	0.450
778.5	0.441
779.0	0.432
779.5	0.422
780.0	0.410
780.5	0.412
781.0	0.415
781.5	0.420
782.0	0.428
782.5	0.432
783.0	0.431
783.5	0.430
784.0	0.430
784.5	0.424
785.0	0.413
785.5	0.413
786.0	0.411
786.5	0.411
787.0	0.409
787.5	0.408
788.0	0.411
788.5	0.413
789.0	0.425
789.5	0.428
790.0	0.424
790.5	0.421
791.0	0.417
791.5	0.414
792.0	0.416
792.5	0.411
793.0	0.412
793.5	0.418
794.0	0.430
794.5	0.426
795.0	0.420
795.5	0.414
796.0	0.409
796.5	0.403
797.0	0.406
797.5	0.401
798.0	0.399
798.5	0.408
799.0	0.406
799.5	0.403
800.0	0.400
800.5	0.393
801.0	0.394
801.5	0.393
802.0	0.397
802.5	0.399
803.0	0.399
803.5	0.400
804.0	0.399
804.5	0.396
805.0	0.392
805.5	0.388
806.0	0.396
806.5	0.403
807.0	0.403
807.5	0.405
808.0	0.403
808.5	0.403
809.0	0.401
809.5	0.387
810.0	0.382
810.5	0.377
811.0	0.376
811.5	0.378
812.0	0.371
812.5	0.364
813.0	0.360
813.5	0.366
814.0	0.365
814.5	0.363
815.0	0.377
815.5	0.379
816.0	0.378
816.5	0.380
817.0	0.377
817.5	0.369
818.0	0.369
818.5	0.369
819.0	0.370
819.5	0.366
820.0	0.364
820.5	0.352
821.0	0.347
821.5	0.348
822.0	0.353
822.5	0.357
823.0	0.361
823.5	0.367
824.0	0.370
824.5	0.362
825.0	0.353
825.5	0.346
826.0	0.340
826.5	0.337
827.0	0.332
827.5	0.330
828.0	0.331
828.5	0.335
829.0	0.331
829.5	0.328
830.0	0.328
830.5	0.335
831.0	0.335
831.5	0.331
832.0	0.328
832.5	0.336
833.0	0.344
833.5	0.348
834.0	0.344
834.5	0.344
835.0	0.346
835.5	0.346
836.0	0.333
836.5	0.319
837.0	0.316
837.5	0.320
838.0	0.326
838.5	0.328
839.0	0.333
839.5	0.338
840.0	0.341
840.5	0.346
841.0	0.344
841.5	0.340
842.0	0.338
842.5	0.339
843.0	0.338
843.5	0.329
844.0	0.334
844.5	0.318
845.0	0.314
845.5	0.323
846.0	0.331
846.5	0.330
847.0	0.340
847.5	0.347
848.0	0.349
848.5	0.347
849.0	0.344
849.5	0.321
850.0	0.311


Sample 2
4/14/2025 4:17 PM
Wavelength (nm)	10mm Absorbance
//WLCalib: Shift 	0.11000	
//WLCalib: 261S 	0.08000	
//WLCalib: 362S 	-0.10000	
//WLCalib: 484S 	-0.09000	
//WLCalib: 529S 	0.30000	
//WLCalib: 823S 	-0.07000	
//QSpecEnd: 
190.0	10.336
190.5	11.807
191.0	12.992
191.5	14.066
192.0	15.061
192.5	15.860
193.0	16.267
193.5	16.602
194.0	16.416
194.5	15.956
195.0	15.579
195.5	15.223
196.0	14.637
196.5	14.100
197.0	13.482
197.5	12.854
198.0	12.305
198.5	11.825
199.0	11.261
199.5	10.788
200.0	10.297
200.5	9.838
201.0	9.406
201.5	8.988
202.0	8.654
202.5	8.392
203.0	8.180
203.5	8.029
204.0	7.907
204.5	7.828
205.0	7.762
205.5	7.713
206.0	7.659
206.5	7.604
207.0	7.555
207.5	7.494
208.0	7.452
208.5	7.419
209.0	7.393
209.5	7.383
210.0	7.372
210.5	7.354
211.0	7.342
211.5	7.320
212.0	7.294
212.5	7.264
213.0	7.248
213.5	7.226
214.0	7.219
214.5	7.199
215.0	7.189
215.5	7.170
216.0	7.154
216.5	7.135
217.0	7.123
217.5	7.128
218.0	7.130
218.5	7.118
219.0	7.119
219.5	7.118
220.0	7.115
220.5	7.109
221.0	7.098
221.5	7.080
222.0	7.079
222.5	7.074
223.0	7.049
223.5	7.034
224.0	7.029
224.5	7.024
225.0	7.016
225.5	6.999
226.0	6.979
226.5	6.957
227.0	6.938
227.5	6.910
228.0	6.887
228.5	6.869
229.0	6.854
229.5	6.841
230.0	6.828
230.5	6.827
231.0	6.826
231.5	6.827
232.0	6.831
232.5	6.837
233.0	6.841
233.5	6.836
234.0	6.832
234.5	6.828
235.0	6.823
235.5	6.818
236.0	6.817
236.5	6.819
237.0	6.819
237.5	6.815
238.0	6.807
238.5	6.807
239.0	6.810
239.5	6.809
240.0	6.804
240.5	6.804
241.0	6.802
241.5	6.796
242.0	6.793
242.5	6.786
243.0	6.789
243.5	6.801
244.0	6.812
244.5	6.822
245.0	6.824
245.5	6.825
246.0	6.820
246.5	6.815
247.0	6.809
247.5	6.800
248.0	6.799
248.5	6.807
249.0	6.818
249.5	6.822
250.0	6.828
250.5	6.833
251.0	6.837
251.5	6.841
252.0	6.837
252.5	6.836
253.0	6.832
253.5	6.840
254.0	6.847
254.5	6.856
255.0	6.859
255.5	6.854
256.0	6.850
256.5	6.841
257.0	6.826
257.5	6.813
258.0	6.797
258.5	6.791
259.0	6.778
259.5	6.769
260.0	6.754
260.5	6.746
261.0	6.742
261.5	6.740
262.0	6.742
262.5	6.747
263.0	6.746
263.5	6.747
264.0	6.741
264.5	6.735
265.0	6.731
265.5	6.720
266.0	6.706
266.5	6.691
267.0	6.677
267.5	6.662
268.0	6.652
268.5	6.647
269.0	6.640
269.5	6.633
270.0	6.622
270.5	6.602
271.0	6.579
271.5	6.552
272.0	6.537
272.5	6.521
273.0	6.506
273.5	6.497
274.0	6.487
274.5	6.478
275.0	6.465
275.5	6.450
276.0	6.431
276.5	6.416
277.0	6.407
277.5	6.393
278.0	6.375
278.5	6.358
279.0	6.343
279.5	6.330
280.0	6.312
280.5	6.292
281.0	6.270
281.5	6.250
282.0	6.235
282.5	6.218
283.0	6.203
283.5	6.191
284.0	6.183
284.5	6.169
285.0	6.153
285.5	6.135
286.0	6.115
286.5	6.097
287.0	6.087
287.5	6.078
288.0	6.073
288.5	6.069
289.0	6.061
289.5	6.052
290.0	6.043
290.5	6.029
291.0	6.018
291.5	6.006
292.0	5.998
292.5	5.991
293.0	5.989
293.5	5.983
294.0	5.976
294.5	5.978
295.0	5.983
295.5	5.978
296.0	5.973
296.5	5.966
297.0	5.959
297.5	5.954
298.0	5.951
298.5	5.945
299.0	5.949
299.5	5.956
300.0	5.963
300.5	5.964
301.0	5.972
301.5	5.977
302.0	5.978
302.5	5.979
303.0	5.981
303.5	5.978
304.0	5.978
304.5	5.973
305.0	5.972
305.5	5.972
306.0	5.971
306.5	5.966
307.0	5.960
307.5	5.960
308.0	5.959
308.5	5.960
309.0	5.965
309.5	5.970
310.0	5.974
310.5	5.973
311.0	5.969
311.5	5.968
312.0	5.965
312.5	5.960
313.0	5.958
313.5	5.957
314.0	5.958
314.5	5.960
315.0	5.963
315.5	5.965
316.0	5.973
316.5	5.977
317.0	5.977
317.5	5.976
318.0	5.976
318.5	5.973
319.0	5.972
319.5	5.972
320.0	5.970
320.5	5.964
321.0	5.967
321.5	5.961
322.0	5.964
322.5	5.965
323.0	5.964
323.5	5.969
324.0	5.972
324.5	5.980
325.0	5.983
325.5	5.984
326.0	5.988
326.5	5.986
327.0	5.985
327.5	5.979
328.0	5.978
328.5	5.978
329.0	5.980
329.5	5.987
330.0	5.989
330.5	5.994
331.0	5.996
331.5	5.994
332.0	5.992
332.5	5.993
333.0	5.993
333.5	5.995
334.0	5.993
334.5	5.994
335.0	5.989
335.5	5.991
336.0	5.992
336.5	5.990
337.0	5.987
337.5	5.988
338.0	5.983
338.5	5.980
339.0	5.972
339.5	5.972
340.0	5.968
340.5	5.967
341.0	5.969
341.5	5.966
342.0	5.966
342.5	5.970
343.0	5.976
343.5	5.977
344.0	5.981
344.5	5.979
345.0	5.978
345.5	5.974
346.0	5.972
346.5	5.967
347.0	5.959
347.5	5.958
348.0	5.955
348.5	5.956
349.0	5.961
349.5	5.960
350.0	5.964
350.5	5.974
351.0	5.980
351.5	5.982
352.0	5.981
352.5	5.977
353.0	5.969
353.5	5.970
354.0	5.964
354.5	5.955
355.0	5.947
355.5	5.943
356.0	5.937
356.5	5.931
357.0	5.928
357.5	5.920
358.0	5.920
358.5	5.923
359.0	5.924
359.5	5.918
360.0	5.913
360.5	5.904
361.0	5.895
361.5	5.885
362.0	5.879
362.5	5.873
363.0	5.877
363.5	5.881
364.0	5.882
364.5	5.879
365.0	5.881
365.5	5.875
366.0	5.870
366.5	5.868
367.0	5.868
367.5	5.866
368.0	5.867
368.5	5.867
369.0	5.868
369.5	5.869
370.0	5.867
370.5	5.866
371.0	5.865
371.5	5.864
372.0	5.864
372.5	5.864
373.0	5.866
373.5	5.870
374.0	5.878
374.5	5.879
375.0	5.883
375.5	5.884
376.0	5.878
376.5	5.869
377.0	5.864
377.5	5.857
378.0	5.853
378.5	5.853
379.0	5.853
379.5	5.847
380.0	5.844
380.5	5.837
381.0	5.830
381.5	5.821
382.0	5.810
382.5	5.795
383.0	5.782
383.5	5.766
384.0	5.750
384.5	5.728
385.0	5.712
385.5	5.700
386.0	5.689
386.5	5.674
387.0	5.664
387.5	5.651
388.0	5.640
388.5	5.631
389.0	5.622
389.5	5.613
390.0	5.601
390.5	5.584
391.0	5.566
391.5	5.550
392.0	5.539
392.5	5.526
393.0	5.518
393.5	5.512
394.0	5.505
394.5	5.503
395.0	5.493
395.5	5.489
396.0	5.491
396.5	5.498
397.0	5.500
397.5	5.503
398.0	5.513
398.5	5.518
399.0	5.524
399.5	5.533
400.0	5.540
400.5	5.554
401.0	5.572
401.5	5.587
402.0	5.593
402.5	5.603
403.0	5.617
403.5	5.630
404.0	5.646
404.5	5.660
405.0	5.675
405.5	5.698
406.0	5.723
406.5	5.746
407.0	5.766
407.5	5.793
408.0	5.818
408.5	5.847
409.0	5.878
409.5	5.899
410.0	5.921
410.5	5.950
411.0	5.980
411.5	6.011
412.0	6.041
412.5	6.076
413.0	6.114
413.5	6.153
414.0	6.194
414.5	6.225
415.0	6.261
415.5	6.298
416.0	6.339
416.5	6.374
417.0	6.407
417.5	6.441
418.0	6.481
418.5	6.524
419.0	6.566
419.5	6.606
420.0	6.649
420.5	6.690
421.0	6.734
421.5	6.775
422.0	6.817
422.5	6.860
423.0	6.904
423.5	6.949
424.0	6.992
424.5	7.036
425.0	7.080
425.5	7.120
426.0	7.163
426.5	7.210
427.0	7.262
427.5	7.308
428.0	7.356
428.5	7.401
429.0	7.448
429.5	7.500
430.0	7.548
430.5	7.592
431.0	7.639
431.5	7.690
432.0	7.737
432.5	7.775
433.0	7.815
433.5	7.852
434.0	7.889
434.5	7.931
435.0	7.970
435.5	8.004
436.0	8.046
436.5	8.093
437.0	8.132
437.5	8.172
438.0	8.209
438.5	8.246
439.0	8.282
439.5	8.319
440.0	8.353
440.5	8.381
441.0	8.417
441.5	8.453
442.0	8.482
442.5	8.510
443.0	8.536
443.5	8.570
444.0	8.599
444.5	8.625
445.0	8.652
445.5	8.671
446.0	8.700
446.5	8.729
447.0	8.748
447.5	8.770
448.0	8.796
448.5	8.823
449.0	8.844
449.5	8.858
450.0	8.877
450.5	8.887
451.0	8.908
451.5	8.927
452.0	8.940
452.5	8.955
453.0	8.978
453.5	8.998
454.0	9.018
454.5	9.030
455.0	9.047
455.5	9.055
456.0	9.070
456.5	9.082
457.0	9.085
457.5	9.091
458.0	9.104
458.5	9.112
459.0	9.121
459.5	9.128
460.0	9.135
460.5	9.146
461.0	9.161
461.5	9.171
462.0	9.180
462.5	9.188
463.0	9.195
463.5	9.202
464.0	9.205
464.5	9.211
465.0	9.214
465.5	9.228
466.0	9.233
466.5	9.245
467.0	9.256
467.5	9.259
468.0	9.259
468.5	9.264
469.0	9.269
469.5	9.275
470.0	9.281
470.5	9.292
471.0	9.296
471.5	9.306
472.0	9.313
472.5	9.314
473.0	9.315
473.5	9.317
474.0	9.320
474.5	9.325
475.0	9.329
475.5	9.336
476.0	9.331
476.5	9.334
477.0	9.334
477.5	9.337
478.0	9.340
478.5	9.342
479.0	9.345
479.5	9.354
480.0	9.356
480.5	9.359
481.0	9.359
481.5	9.363
482.0	9.357
482.5	9.351
483.0	9.344
483.5	9.338
484.0	9.334
484.5	9.332
485.0	9.324
485.5	9.328
486.0	9.333
486.5	9.333
487.0	9.331
487.5	9.323
488.0	9.317
488.5	9.312
489.0	9.310
489.5	9.305
490.0	9.298
490.5	9.297
491.0	9.295
491.5	9.290
492.0	9.289
492.5	9.281
493.0	9.282
493.5	9.288
494.0	9.288
494.5	9.285
495.0	9.282
495.5	9.275
496.0	9.267
496.5	9.259
497.0	9.255
497.5	9.246
498.0	9.242
498.5	9.238
499.0	9.236
499.5	9.225
500.0	9.215
500.5	9.203
501.0	9.192
501.5	9.179
502.0	9.168
502.5	9.159
503.0	9.150
503.5	9.135
504.0	9.131
504.5	9.118
505.0	9.116
505.5	9.111
506.0	9.106
506.5	9.094
507.0	9.083
507.5	9.070
508.0	9.055
508.5	9.031
509.0	9.009
509.5	8.992
510.0	8.983
510.5	8.964
511.0	8.948
511.5	8.929
512.0	8.913
512.5	8.893
513.0	8.878
513.5	8.860
514.0	8.844
514.5	8.828
515.0	8.811
515.5	8.788
516.0	8.764
516.5	8.738
517.0	8.713
517.5	8.687
518.0	8.663
518.5	8.633
519.0	8.611
519.5	8.582
520.0	8.557
520.5	8.534
521.0	8.513
521.5	8.486
522.0	8.460
522.5	8.440
523.0	8.408
523.5	8.373
524.0	8.351
524.5	8.321
525.0	8.289
525.5	8.259
526.0	8.229
526.5	8.191
527.0	8.153
527.5	8.117
528.0	8.077
528.5	8.041
529.0	8.013
529.5	7.981
530.0	7.951
530.5	7.924
531.0	7.897
531.5	7.871
532.0	7.837
532.5	7.801
533.0	7.763
533.5	7.725
534.0	7.687
534.5	7.648
535.0	7.612
535.5	7.575
536.0	7.536
536.5	7.502
537.0	7.462
537.5	7.424
538.0	7.386
538.5	7.346
539.0	7.305
539.5	7.265
540.0	7.222
540.5	7.181
541.0	7.134
541.5	7.092
542.0	7.051
542.5	7.014
543.0	6.979
543.5	6.946
544.0	6.916
544.5	6.885
545.0	6.849
545.5	6.811
546.0	6.766
546.5	6.719
547.0	6.670
547.5	6.624
548.0	6.582
548.5	6.548
549.0	6.510
549.5	6.470
550.0	6.430
550.5	6.382
551.0	6.335
551.5	6.285
552.0	6.242
552.5	6.208
553.0	6.171
553.5	6.138
554.0	6.100
554.5	6.061
555.0	6.015
555.5	5.968
556.0	5.921
556.5	5.870
557.0	5.824
557.5	5.779
558.0	5.734
558.5	5.692
559.0	5.653
559.5	5.609
560.0	5.565
560.5	5.524
561.0	5.482
561.5	5.436
562.0	5.390
562.5	5.346
563.0	5.306
563.5	5.269
564.0	5.230
564.5	5.188
565.0	5.149
565.5	5.106
566.0	5.065
566.5	5.023
567.0	4.981
567.5	4.938
568.0	4.899
568.5	4.861
569.0	4.821
569.5	4.780
570.0	4.741
570.5	4.696
571.0	4.653
571.5	4.610
572.0	4.568
572.5	4.525
573.0	4.489
573.5	4.452
574.0	4.421
574.5	4.389
575.0	4.354
575.5	4.312
576.0	4.274
576.5	4.235
577.0	4.200
577.5	4.162
578.0	4.127
578.5	4.090
579.0	4.063
579.5	4.031
580.0	3.995
580.5	3.959
581.0	3.926
581.5	3.892
582.0	3.857
582.5	3.823
583.0	3.792
583.5	3.761
584.0	3.733
584.5	3.708
585.0	3.678
585.5	3.647
586.0	3.621
586.5	3.592
587.0	3.560
587.5	3.531
588.0	3.502
588.5	3.472
589.0	3.443
589.5	3.416
590.0	3.384
590.5	3.352
591.0	3.326
591.5	3.298
592.0	3.272
592.5	3.245
593.0	3.220
593.5	3.194
594.0	3.170
594.5	3.148
595.0	3.125
595.5	3.103
596.0	3.082
596.5	3.064
597.0	3.043
597.5	3.021
598.0	2.999
598.5	2.976
599.0	2.954
599.5	2.930
600.0	2.906
600.5	2.882
601.0	2.863
601.5	2.845
602.0	2.823
602.5	2.797
603.0	2.772
603.5	2.752
604.0	2.730
604.5	2.707
605.0	2.685
605.5	2.670
606.0	2.661
606.5	2.649
607.0	2.635
607.5	2.618
608.0	2.598
608.5	2.583
609.0	2.564
609.5	2.540
610.0	2.519
610.5	2.502
611.0	2.484
611.5	2.474
612.0	2.464
612.5	2.453
613.0	2.437
613.5	2.425
614.0	2.409
614.5	2.390
615.0	2.374
615.5	2.357
616.0	2.344
616.5	2.339
617.0	2.331
617.5	2.318
618.0	2.305
618.5	2.297
619.0	2.286
619.5	2.272
620.0	2.260
620.5	2.249
621.0	2.230
621.5	2.217
622.0	2.199
622.5	2.186
623.0	2.171
623.5	2.161
624.0	2.149
624.5	2.139
625.0	2.130
625.5	2.121
626.0	2.104
626.5	2.091
627.0	2.077
627.5	2.066
628.0	2.058
628.5	2.050
629.0	2.041
629.5	2.036
630.0	2.028
630.5	2.022
631.0	2.013
631.5	2.001
632.0	1.982
632.5	1.968
633.0	1.958
633.5	1.947
634.0	1.934
634.5	1.927
635.0	1.914
635.5	1.907
636.0	1.898
636.5	1.892
637.0	1.882
637.5	1.879
638.0	1.878
638.5	1.872
639.0	1.868
639.5	1.862
640.0	1.848
640.5	1.833
641.0	1.820
641.5	1.814
642.0	1.801
642.5	1.791
643.0	1.782
643.5	1.772
644.0	1.765
644.5	1.754
645.0	1.744
645.5	1.734
646.0	1.730
646.5	1.725
647.0	1.714
647.5	1.705
648.0	1.696
648.5	1.688
649.0	1.678
649.5	1.669
650.0	1.660
650.5	1.656
651.0	1.652
651.5	1.644
652.0	1.636
652.5	1.630
653.0	1.624
653.5	1.619
654.0	1.613
654.5	1.605
655.0	1.593
655.5	1.582
656.0	1.574
656.5	1.568
657.0	1.561
657.5	1.555
658.0	1.548
658.5	1.546
659.0	1.541
659.5	1.535
660.0	1.529
660.5	1.524
661.0	1.524
661.5	1.523
662.0	1.517
662.5	1.508
663.0	1.497
663.5	1.488
664.0	1.479
664.5	1.469
665.0	1.466
665.5	1.459
666.0	1.453
666.5	1.449
667.0	1.442
667.5	1.436
668.0	1.424
668.5	1.415
669.0	1.408
669.5	1.408
670.0	1.406
670.5	1.400
671.0	1.392
671.5	1.384
672.0	1.375
672.5	1.368
673.0	1.356
673.5	1.349
674.0	1.351
674.5	1.353
675.0	1.348
675.5	1.344
676.0	1.336
676.5	1.330
677.0	1.327
677.5	1.325
678.0	1.321
678.5	1.317
679.0	1.312
679.5	1.301
680.0	1.293
680.5	1.288
681.0	1.283
681.5	1.278
682.0	1.272
682.5	1.269
683.0	1.262
683.5	1.251
684.0	1.241
684.5	1.240
685.0	1.244
685.5	1.246
686.0	1.246
686.5	1.244
687.0	1.241
687.5	1.238
688.0	1.234
688.5	1.225
689.0	1.218
689.5	1.211
690.0	1.202
690.5	1.192
691.0	1.185
691.5	1.181
692.0	1.173
692.5	1.173
693.0	1.170
693.5	1.167
694.0	1.162
694.5	1.156
695.0	1.150
695.5	1.152
696.0	1.148
696.5	1.147
697.0	1.144
697.5	1.139
698.0	1.134
698.5	1.130
699.0	1.123
699.5	1.117
700.0	1.107
700.5	1.109
701.0	1.102
701.5	1.101
702.0	1.102
702.5	1.102
703.0	1.101
703.5	1.100
704.0	1.098
704.5	1.096
705.0	1.092
705.5	1.086
706.0	1.077
706.5	1.073
707.0	1.072
707.5	1.069
708.0	1.057
708.5	1.053
709.0	1.053
709.5	1.055
710.0	1.054
710.5	1.049
711.0	1.047
711.5	1.044
712.0	1.039
712.5	1.034
713.0	1.019
713.5	1.016
714.0	1.017
714.5	1.017
715.0	1.022
715.5	1.021
716.0	1.019
716.5	1.015
717.0	1.010
717.5	0.996
718.0	0.985
718.5	0.976
719.0	0.968
719.5	0.964
720.0	0.962
720.5	0.959
721.0	0.963
721.5	0.964
722.0	0.963
722.5	0.959
723.0	0.957
723.5	0.952
724.0	0.948
724.5	0.944
725.0	0.945
725.5	0.948
726.0	0.946
726.5	0.941
727.0	0.937
727.5	0.932
728.0	0.922
728.5	0.921
729.0	0.915
729.5	0.911
730.0	0.917
730.5	0.914
731.0	0.906
731.5	0.897
732.0	0.885
732.5	0.875
733.0	0.867
733.5	0.863
734.0	0.865
734.5	0.867
735.0	0.867
735.5	0.870
736.0	0.870
736.5	0.866
737.0	0.862
737.5	0.857
738.0	0.851
738.5	0.851
739.0	0.856
739.5	0.850
740.0	0.844
740.5	0.846
741.0	0.848
741.5	0.849
742.0	0.846
742.5	0.846
743.0	0.851
743.5	0.855
744.0	0.853
744.5	0.846
745.0	0.838
745.5	0.829
746.0	0.824
746.5	0.817
747.0	0.810
747.5	0.808
748.0	0.810
748.5	0.810
749.0	0.806
749.5	0.798
750.0	0.792
750.5	0.786
751.0	0.785
751.5	0.785
752.0	0.783
752.5	0.788
753.0	0.791
753.5	0.795
754.0	0.796
754.5	0.796
755.0	0.796
755.5	0.795
756.0	0.791
756.5	0.787
757.0	0.779
757.5	0.776
758.0	0.766
758.5	0.762
759.0	0.764
759.5	0.758
760.0	0.750
760.5	0.746
761.0	0.739
761.5	0.732
762.0	0.729
762.5	0.732
763.0	0.730
763.5	0.731
764.0	0.731
764.5	0.721
765.0	0.715
765.5	0.712
766.0	0.715
766.5	0.718
767.0	0.720
767.5	0.723
768.0	0.724
768.5	0.725
769.0	0.719
769.5	0.716
770.0	0.719
770.5	0.720
771.0	0.729
771.5	0.726
772.0	0.716
772.5	0.709
773.0	0.701
773.5	0.692
774.0	0.684
774.5	0.681
775.0	0.680
775.5	0.679
776.0	0.693
776.5	0.692
777.0	0.687
777.5	0.683
778.0	0.672
778.5	0.662
779.0	0.662
779.5	0.660
780.0	0.653
780.5	0.653
781.0	0.660
781.5	0.654
782.0	0.648
782.5	0.642
783.0	0.634
783.5	0.634
784.0	0.641
784.5	0.644
785.0	0.639
785.5	0.640
786.0	0.641
786.5	0.640
787.0	0.636
787.5	0.633
788.0	0.636
788.5	0.640
789.0	0.644
789.5	0.644
790.0	0.635
790.5	0.637
791.0	0.638
791.5	0.639
792.0	0.640
792.5	0.637
793.0	0.644
793.5	0.650
794.0	0.653
794.5	0.642
795.0	0.630
795.5	0.627
796.0	0.617
796.5	0.601
797.0	0.594
797.5	0.591
798.0	0.597
798.5	0.603
799.0	0.605
799.5	0.603
800.0	0.602
800.5	0.601
801.0	0.593
801.5	0.581
802.0	0.587
802.5	0.589
803.0	0.593
803.5	0.597
804.0	0.598
804.5	0.594
805.0	0.596
805.5	0.596
806.0	0.594
806.5	0.595
807.0	0.592
807.5	0.593
808.0	0.590
808.5	0.585
809.0	0.577
809.5	0.572
810.0	0.578
810.5	0.584
811.0	0.581
811.5	0.586
812.0	0.581
812.5	0.581
813.0	0.573
813.5	0.571
814.0	0.564
814.5	0.560
815.0	0.568
815.5	0.568
816.0	0.551
816.5	0.547
817.0	0.543
817.5	0.540
818.0	0.537
818.5	0.538
819.0	0.535
819.5	0.536
820.0	0.535
820.5	0.528
821.0	0.516
821.5	0.515
822.0	0.517
822.5	0.522
823.0	0.526
823.5	0.534
824.0	0.538
824.5	0.538
825.0	0.532
825.5	0.527
826.0	0.519
826.5	0.509
827.0	0.502
827.5	0.498
828.0	0.499
828.5	0.503
829.0	0.499
829.5	0.499
830.0	0.501
830.5	0.510
831.0	0.512
831.5	0.512
832.0	0.511
832.5	0.515
833.0	0.523
833.5	0.521
834.0	0.517
834.5	0.512
835.0	0.511
835.5	0.507
836.0	0.494
836.5	0.487
837.0	0.483
837.5	0.485
838.0	0.493
838.5	0.494
839.0	0.498
839.5	0.495
840.0	0.489
840.5	0.484
841.0	0.475
841.5	0.473
842.0	0.468
842.5	0.475
843.0	0.486
843.5	0.485
844.0	0.489
844.5	0.483
845.0	0.476
845.5	0.483
846.0	0.474
846.5	0.468
847.0	0.469
847.5	0.474
848.0	0.480
848.5	0.479
849.0	0.486
849.5	0.486
850.0	0.491


Sample 3
4/14/2025 4:18 PM
Wavelength (nm)	10mm Absorbance
//WLCalib: Shift 	0.11000	
//WLCalib: 261S 	0.08000	
//WLCalib: 362S 	-0.10000	
//WLCalib: 484S 	-0.09000	
//WLCalib: 529S 	0.30000	
//WLCalib: 823S 	-0.07000	
//QSpecEnd: 
190.0	10.818
190.5	12.221
191.0	13.424
191.5	14.800
192.0	15.549
192.5	16.210
193.0	16.739
193.5	16.989
194.0	17.074
194.5	16.916
195.0	16.699
195.5	16.139
196.0	15.374
196.5	14.612
197.0	13.753
197.5	12.891
198.0	12.291
198.5	11.761
199.0	11.185
199.5	10.714
200.0	10.285
200.5	9.882
201.0	9.476
201.5	9.137
202.0	8.836
202.5	8.563
203.0	8.343
203.5	8.194
204.0	8.067
204.5	7.960
205.0	7.876
205.5	7.791
206.0	7.721
206.5	7.663
207.0	7.613
207.5	7.571
208.0	7.531
208.5	7.503
209.0	7.467
209.5	7.449
210.0	7.424
210.5	7.409
211.0	7.393
211.5	7.385
212.0	7.383
212.5	7.367
213.0	7.341
213.5	7.322
214.0	7.312
214.5	7.310
215.0	7.332
215.5	7.342
216.0	7.345
216.5	7.355
217.0	7.352
217.5	7.334
218.0	7.313
218.5	7.290
219.0	7.263
219.5	7.259
220.0	7.257
220.5	7.250
221.0	7.242
221.5	7.246
222.0	7.233
222.5	7.241
223.0	7.233
223.5	7.218
224.0	7.214
224.5	7.196
225.0	7.180
225.5	7.163
226.0	7.150
226.5	7.128
227.0	7.103
227.5	7.078
228.0	7.054
228.5	7.038
229.0	7.024
229.5	7.009
230.0	7.004
230.5	7.011
231.0	7.012
231.5	7.017
232.0	7.022
232.5	7.021
233.0	7.022
233.5	7.016
234.0	7.010
234.5	6.997
235.0	6.990
235.5	6.988
236.0	6.991
236.5	6.994
237.0	6.999
237.5	6.999
238.0	6.993
238.5	6.994
239.0	6.994
239.5	6.990
240.0	6.989
240.5	6.985
241.0	6.980
241.5	6.974
242.0	6.968
242.5	6.961
243.0	6.957
243.5	6.967
244.0	6.977
244.5	6.990
245.0	6.995
245.5	6.994
246.0	6.990
246.5	6.984
247.0	6.972
247.5	6.967
248.0	6.968
248.5	6.974
249.0	6.984
249.5	6.993
250.0	7.002
250.5	7.004
251.0	7.002
251.5	6.998
252.0	6.996
252.5	6.997
253.0	6.999
253.5	7.004
254.0	7.017
254.5	7.032
255.0	7.041
255.5	7.037
256.0	7.026
256.5	7.011
257.0	6.995
257.5	6.972
258.0	6.952
258.5	6.937
259.0	6.926
259.5	6.912
260.0	6.903
260.5	6.895
261.0	6.892
261.5	6.890
262.0	6.896
262.5	6.902
263.0	6.903
263.5	6.901
264.0	6.897
264.5	6.893
265.0	6.887
265.5	6.875
266.0	6.859
266.5	6.847
267.0	6.835
267.5	6.818
268.0	6.804
268.5	6.796
269.0	6.790
269.5	6.778
270.0	6.767
270.5	6.755
271.0	6.738
271.5	6.724
272.0	6.709
272.5	6.695
273.0	6.685
273.5	6.676
274.0	6.665
274.5	6.655
275.0	6.641
275.5	6.629
276.0	6.614
276.5	6.597
277.0	6.583
277.5	6.564
278.0	6.547
278.5	6.534
279.0	6.524
279.5	6.513
280.0	6.495
280.5	6.482
281.0	6.462
281.5	6.441
282.0	6.424
282.5	6.404
283.0	6.386
283.5	6.378
284.0	6.369
284.5	6.362
285.0	6.352
285.5	6.338
286.0	6.318
286.5	6.300
287.0	6.287
287.5	6.275
288.0	6.263
288.5	6.258
289.0	6.253
289.5	6.251
290.0	6.243
290.5	6.229
291.0	6.218
291.5	6.210
292.0	6.204
292.5	6.201
293.0	6.195
293.5	6.189
294.0	6.184
294.5	6.178
295.0	6.171
295.5	6.164
296.0	6.159
296.5	6.153
297.0	6.151
297.5	6.153
298.0	6.150
298.5	6.150
299.0	6.150
299.5	6.158
300.0	6.165
300.5	6.167
301.0	6.168
301.5	6.170
302.0	6.168
302.5	6.169
303.0	6.168
303.5	6.172
304.0	6.175
304.5	6.181
305.0	6.185
305.5	6.183
306.0	6.186
306.5	6.180
307.0	6.172
307.5	6.167
308.0	6.163
308.5	6.161
309.0	6.163
309.5	6.167
310.0	6.171
310.5	6.168
311.0	6.168
311.5	6.166
312.0	6.165
312.5	6.161
313.0	6.162
313.5	6.155
314.0	6.154
314.5	6.156
315.0	6.154
315.5	6.150
316.0	6.154
316.5	6.161
317.0	6.166
317.5	6.169
318.0	6.169
318.5	6.162
319.0	6.161
319.5	6.164
320.0	6.161
320.5	6.160
321.0	6.165
321.5	6.174
322.0	6.185
322.5	6.187
323.0	6.180
323.5	6.181
324.0	6.181
324.5	6.182
325.0	6.181
325.5	6.180
326.0	6.187
326.5	6.189
327.0	6.185
327.5	6.180
328.0	6.175
328.5	6.172
329.0	6.168
329.5	6.166
330.0	6.166
330.5	6.167
331.0	6.172
331.5	6.169
332.0	6.159
332.5	6.161
333.0	6.162
333.5	6.159
334.0	6.163
334.5	6.163
335.0	6.163
335.5	6.169
336.0	6.173
336.5	6.168
337.0	6.163
337.5	6.163
338.0	6.165
338.5	6.162
339.0	6.166
339.5	6.165
340.0	6.171
340.5	6.174
341.0	6.175
341.5	6.167
342.0	6.163
342.5	6.157
343.0	6.159
343.5	6.150
344.0	6.152
344.5	6.146
345.0	6.152
345.5	6.154
346.0	6.154
346.5	6.144
347.0	6.139
347.5	6.137
348.0	6.138
348.5	6.134
349.0	6.137
349.5	6.136
350.0	6.142
350.5	6.147
351.0	6.142
351.5	6.134
352.0	6.132
352.5	6.128
353.0	6.124
353.5	6.117
354.0	6.115
354.5	6.110
355.0	6.104
355.5	6.103
356.0	6.096
356.5	6.091
357.0	6.091
357.5	6.086
358.0	6.085
358.5	6.084
359.0	6.080
359.5	6.072
360.0	6.069
360.5	6.065
361.0	6.054
361.5	6.042
362.0	6.037
362.5	6.028
363.0	6.027
363.5	6.030
364.0	6.031
364.5	6.031
365.0	6.035
365.5	6.037
366.0	6.033
366.5	6.032
367.0	6.030
367.5	6.024
368.0	6.024
368.5	6.025
369.0	6.026
369.5	6.021
370.0	6.019
370.5	6.017
371.0	6.012
371.5	6.015
372.0	6.015
372.5	6.017
373.0	6.022
373.5	6.028
374.0	6.037
374.5	6.043
375.0	6.056
375.5	6.064
376.0	6.067
376.5	6.070
377.0	6.067
377.5	6.066
378.0	6.065
378.5	6.065
379.0	6.071
379.5	6.072
380.0	6.076
380.5	6.077
381.0	6.069
381.5	6.060
382.0	6.052
382.5	6.043
383.0	6.036
383.5	6.026
384.0	6.020
384.5	6.004
385.0	5.992
385.5	5.982
386.0	5.967
386.5	5.956
387.0	5.947
387.5	5.933
388.0	5.921
388.5	5.908
389.0	5.896
389.5	5.879
390.0	5.864
390.5	5.846
391.0	5.830
391.5	5.817
392.0	5.805
392.5	5.791
393.0	5.777
393.5	5.766
394.0	5.751
394.5	5.735
395.0	5.717
395.5	5.702
396.0	5.692
396.5	5.689
397.0	5.686
397.5	5.682
398.0	5.681
398.5	5.679
399.0	5.671
399.5	5.664
400.0	5.657
400.5	5.655
401.0	5.657
401.5	5.657
402.0	5.651
402.5	5.648
403.0	5.645
403.5	5.647
404.0	5.645
404.5	5.642
405.0	5.643
405.5	5.652
406.0	5.663
406.5	5.667
407.0	5.673
407.5	5.683
408.0	5.689
408.5	5.701
409.0	5.710
409.5	5.710
410.0	5.715
410.5	5.727
411.0	5.737
411.5	5.742
412.0	5.754
412.5	5.769
413.0	5.783
413.5	5.799
414.0	5.820
414.5	5.832
415.0	5.853
415.5	5.874
416.0	5.891
416.5	5.905
417.0	5.921
417.5	5.940
418.0	5.958
418.5	5.984
419.0	6.013
419.5	6.038
420.0	6.074
420.5	6.103
421.0	6.133
421.5	6.159
422.0	6.191
422.5	6.226
423.0	6.260
423.5	6.298
424.0	6.334
424.5	6.373
425.0	6.413
425.5	6.453
426.0	6.494
426.5	6.537
427.0	6.588
427.5	6.636
428.0	6.683
428.5	6.731
429.0	6.778
429.5	6.828
430.0	6.877
430.5	6.924
431.0	6.977
431.5	7.035
432.0	7.091
432.5	7.143
433.0	7.200
433.5	7.256
434.0	7.304
434.5	7.354
435.0	7.401
435.5	7.445
436.0	7.502
436.5	7.558
437.0	7.612
437.5	7.662
438.0	7.717
438.5	7.767
439.0	7.813
439.5	7.863
440.0	7.911
440.5	7.962
441.0	8.014
441.5	8.065
442.0	8.120
442.5	8.167
443.0	8.215
443.5	8.261
444.0	8.304
444.5	8.348
445.0	8.384
445.5	8.420
446.0	8.457
446.5	8.501
447.0	8.548
447.5	8.583
448.0	8.623
448.5	8.664
449.0	8.700
449.5	8.737
450.0	8.775
450.5	8.813
451.0	8.849
451.5	8.890
452.0	8.925
452.5	8.951
453.0	8.980
453.5	9.008
454.0	9.028
454.5	9.056
455.0	9.077
455.5	9.095
456.0	9.109
456.5	9.131
457.0	9.152
457.5	9.174
458.0	9.200
458.5	9.224
459.0	9.242
459.5	9.266
460.0	9.279
460.5	9.297
461.0	9.308
461.5	9.324
462.0	9.341
462.5	9.357
463.0	9.371
463.5	9.383
464.0	9.394
464.5	9.407
465.0	9.425
465.5	9.444
466.0	9.455
466.5	9.471
467.0	9.485
467.5	9.494
468.0	9.500
468.5	9.504
469.0	9.513
469.5	9.519
470.0	9.528
470.5	9.533
471.0	9.544
471.5	9.551
472.0	9.560
472.5	9.565
473.0	9.574
473.5	9.582
474.0	9.592
474.5	9.599
475.0	9.609
475.5	9.617
476.0	9.627
476.5	9.632
477.0	9.633
477.5	9.640
478.0	9.650
478.5	9.653
479.0	9.653
479.5	9.654
480.0	9.657
480.5	9.659
481.0	9.662
481.5	9.661
482.0	9.657
482.5	9.661
483.0	9.663
483.5	9.662
484.0	9.658
484.5	9.653
485.0	9.653
485.5	9.659
486.0	9.666
486.5	9.669
487.0	9.674
487.5	9.682
488.0	9.684
488.5	9.688
489.0	9.687
489.5	9.686
490.0	9.688
490.5	9.688
491.0	9.688
491.5	9.688
492.0	9.697
492.5	9.702
493.0	9.705
493.5	9.712
494.0	9.714
494.5	9.710
495.0	9.708
495.5	9.705
496.0	9.702
496.5	9.707
497.0	9.713
497.5	9.718
498.0	9.726
498.5	9.736
499.0	9.744
499.5	9.742
500.0	9.746
500.5	9.757
501.0	9.754
501.5	9.761
502.0	9.765
502.5	9.763
503.0	9.758
503.5	9.758
504.0	9.755
504.5	9.746
505.0	9.755
505.5	9.765
506.0	9.766
506.5	9.773
507.0	9.775
507.5	9.776
508.0	9.782
508.5	9.780
509.0	9.776
509.5	9.776
510.0	9.786
510.5	9.792
511.0	9.800
511.5	9.796
512.0	9.791
512.5	9.788
513.0	9.792
513.5	9.792
514.0	9.793
514.5	9.797
515.0	9.802
515.5	9.805
516.0	9.813
516.5	9.800
517.0	9.796
517.5	9.794
518.0	9.797
518.5	9.802
519.0	9.796
519.5	9.793
520.0	9.791
520.5	9.793
521.0	9.796
521.5	9.784
522.0	9.780
522.5	9.780
523.0	9.775
523.5	9.765
524.0	9.752
524.5	9.743
525.0	9.730
525.5	9.727
526.0	9.720
526.5	9.706
527.0	9.693
527.5	9.687
528.0	9.679
528.5	9.672
529.0	9.668
529.5	9.659
530.0	9.649
530.5	9.637
531.0	9.623
531.5	9.609
532.0	9.593
532.5	9.583
533.0	9.560
533.5	9.544
534.0	9.526
534.5	9.506
535.0	9.492
535.5	9.475
536.0	9.460
536.5	9.448
537.0	9.431
537.5	9.410
538.0	9.387
538.5	9.368
539.0	9.343
539.5	9.315
540.0	9.288
540.5	9.263
541.0	9.233
541.5	9.208
542.0	9.174
542.5	9.139
543.0	9.112
543.5	9.095
544.0	9.062
544.5	9.042
545.0	9.014
545.5	8.984
546.0	8.954
546.5	8.921
547.0	8.882
547.5	8.844
548.0	8.813
548.5	8.791
549.0	8.758
549.5	8.731
550.0	8.692
550.5	8.651
551.0	8.614
551.5	8.571
552.0	8.532
552.5	8.498
553.0	8.469
553.5	8.440
554.0	8.407
554.5	8.373
555.0	8.332
555.5	8.289
556.0	8.247
556.5	8.191
557.0	8.141
557.5	8.093
558.0	8.048
558.5	8.003
559.0	7.963
559.5	7.926
560.0	7.881
560.5	7.838
561.0	7.792
561.5	7.736
562.0	7.686
562.5	7.631
563.0	7.586
563.5	7.541
564.0	7.496
564.5	7.451
565.0	7.405
565.5	7.359
566.0	7.309
566.5	7.256
567.0	7.203
567.5	7.150
568.0	7.102
568.5	7.056
569.0	7.005
569.5	6.961
570.0	6.911
570.5	6.857
571.0	6.808
571.5	6.766
572.0	6.717
572.5	6.665
573.0	6.616
573.5	6.566
574.0	6.516
574.5	6.470
575.0	6.419
575.5	6.366
576.0	6.323
576.5	6.285
577.0	6.234
577.5	6.183
578.0	6.139
578.5	6.089
579.0	6.041
579.5	5.996
580.0	5.946
580.5	5.893
581.0	5.850
581.5	5.804
582.0	5.756
582.5	5.710
583.0	5.667
583.5	5.626
584.0	5.582
584.5	5.540
585.0	5.489
585.5	5.444
586.0	5.403
586.5	5.355
587.0	5.309
587.5	5.262
588.0	5.223
588.5	5.188
589.0	5.144
589.5	5.105
590.0	5.060
590.5	5.017
591.0	4.976
591.5	4.931
592.0	4.886
592.5	4.842
593.0	4.807
593.5	4.771
594.0	4.735
594.5	4.701
595.0	4.663
595.5	4.626
596.0	4.591
596.5	4.561
597.0	4.526
597.5	4.493
598.0	4.461
598.5	4.430
599.0	4.402
599.5	4.367
600.0	4.328
600.5	4.287
601.0	4.252
601.5	4.219
602.0	4.182
602.5	4.146
603.0	4.113
603.5	4.085
604.0	4.058
604.5	4.025
605.0	3.991
605.5	3.958
606.0	3.932
606.5	3.904
607.0	3.876
607.5	3.852
608.0	3.828
608.5	3.800
609.0	3.771
609.5	3.736
610.0	3.704
610.5	3.676
611.0	3.646
611.5	3.624
612.0	3.610
612.5	3.595
613.0	3.576
613.5	3.555
614.0	3.531
614.5	3.503
615.0	3.477
615.5	3.455
616.0	3.431
616.5	3.415
617.0	3.394
617.5	3.371
618.0	3.348
618.5	3.331
619.0	3.309
619.5	3.286
620.0	3.268
620.5	3.255
621.0	3.231
621.5	3.209
622.0	3.181
622.5	3.156
623.0	3.136
623.5	3.118
624.0	3.098
624.5	3.080
625.0	3.068
625.5	3.055
626.0	3.032
626.5	3.010
627.0	2.992
627.5	2.974
628.0	2.964
628.5	2.950
629.0	2.933
629.5	2.918
630.0	2.901
630.5	2.884
631.0	2.863
631.5	2.839
632.0	2.819
632.5	2.803
633.0	2.792
633.5	2.778
634.0	2.763
634.5	2.752
635.0	2.735
635.5	2.721
636.0	2.705
636.5	2.692
637.0	2.677
637.5	2.669
638.0	2.663
638.5	2.655
639.0	2.636
639.5	2.623
640.0	2.605
640.5	2.590
641.0	2.577
641.5	2.570
642.0	2.561
642.5	2.549
643.0	2.536
643.5	2.519
644.0	2.501
644.5	2.483
645.0	2.466
645.5	2.452
646.0	2.438
646.5	2.427
647.0	2.415
647.5	2.399
648.0	2.384
648.5	2.374
649.0	2.368
649.5	2.357
650.0	2.343
650.5	2.335
651.0	2.322
651.5	2.305
652.0	2.290
652.5	2.272
653.0	2.256
653.5	2.247
654.0	2.236
654.5	2.227
655.0	2.217
655.5	2.210
656.0	2.204
656.5	2.197
657.0	2.188
657.5	2.176
658.0	2.167
658.5	2.160
659.0	2.149
659.5	2.138
660.0	2.129
660.5	2.121
661.0	2.117
661.5	2.114
662.0	2.106
662.5	2.092
663.0	2.078
663.5	2.066
664.0	2.053
664.5	2.037
665.0	2.029
665.5	2.018
666.0	2.010
666.5	2.000
667.0	1.987
667.5	1.969
668.0	1.956
668.5	1.948
669.0	1.946
669.5	1.945
670.0	1.944
670.5	1.936
671.0	1.930
671.5	1.920
672.0	1.909
672.5	1.895
673.0	1.879
673.5	1.868
674.0	1.865
674.5	1.859
675.0	1.848
675.5	1.840
676.0	1.835
676.5	1.830
677.0	1.826
677.5	1.820
678.0	1.813
678.5	1.805
679.0	1.797
679.5	1.784
680.0	1.776
680.5	1.768
681.0	1.759
681.5	1.744
682.0	1.730
682.5	1.722
683.0	1.713
683.5	1.702
684.0	1.691
684.5	1.689
685.0	1.697
685.5	1.696
686.0	1.694
686.5	1.692
687.0	1.684
687.5	1.680
688.0	1.672
688.5	1.666
689.0	1.652
689.5	1.640
690.0	1.634
690.5	1.625
691.0	1.617
691.5	1.610
692.0	1.596
692.5	1.588
693.0	1.584
693.5	1.579
694.0	1.568
694.5	1.561
695.0	1.555
695.5	1.553
696.0	1.547
696.5	1.542
697.0	1.539
697.5	1.531
698.0	1.529
698.5	1.523
699.0	1.510
699.5	1.503
700.0	1.489
700.5	1.484
701.0	1.477
701.5	1.474
702.0	1.473
702.5	1.470
703.0	1.471
703.5	1.469
704.0	1.463
704.5	1.458
705.0	1.452
705.5	1.447
706.0	1.440
706.5	1.439
707.0	1.434
707.5	1.430
708.0	1.422
708.5	1.412
709.0	1.407
709.5	1.403
710.0	1.395
710.5	1.389
711.0	1.384
711.5	1.379
712.0	1.364
712.5	1.360
713.0	1.350
713.5	1.349
714.0	1.357
714.5	1.361
715.0	1.360
715.5	1.355
716.0	1.346
716.5	1.336
717.0	1.322
717.5	1.310
718.0	1.300
718.5	1.294
719.0	1.285
719.5	1.279
720.0	1.271
720.5	1.265
721.0	1.269
721.5	1.268
722.0	1.265
722.5	1.260
723.0	1.258
723.5	1.252
724.0	1.246
724.5	1.242
725.0	1.240
725.5	1.244
726.0	1.245
726.5	1.236
727.0	1.229
727.5	1.215
728.0	1.201
728.5	1.196
729.0	1.191
729.5	1.191
730.0	1.193
730.5	1.197
731.0	1.197
731.5	1.187
732.0	1.179
732.5	1.160
733.0	1.147
733.5	1.135
734.0	1.132
734.5	1.129
735.0	1.126
735.5	1.131
736.0	1.132
736.5	1.131
737.0	1.131
737.5	1.127
738.0	1.123
738.5	1.118
739.0	1.119
739.5	1.111
740.0	1.101
740.5	1.095
741.0	1.090
741.5	1.091
742.0	1.087
742.5	1.084
743.0	1.089
743.5	1.099
744.0	1.104
744.5	1.098
745.0	1.085
745.5	1.075
746.0	1.066
746.5	1.058
747.0	1.047
747.5	1.043
748.0	1.048
748.5	1.052
749.0	1.047
749.5	1.037
750.0	1.029
750.5	1.027
751.0	1.029
751.5	1.028
752.0	1.031
752.5	1.035
753.0	1.028
753.5	1.021
754.0	1.013
754.5	1.004
755.0	0.999
755.5	0.997
756.0	0.995
756.5	0.993
757.0	0.994
757.5	0.992
758.0	0.979
758.5	0.972
759.0	0.969
759.5	0.965
760.0	0.959
760.5	0.953
761.0	0.944
761.5	0.938
762.0	0.935
762.5	0.929
763.0	0.923
763.5	0.916
764.0	0.915
764.5	0.914
765.0	0.911
765.5	0.909
766.0	0.912
766.5	0.915
767.0	0.916
767.5	0.918
768.0	0.923
768.5	0.918
769.0	0.912
769.5	0.913
770.0	0.913
770.5	0.909
771.0	0.915
771.5	0.908
772.0	0.902
772.5	0.902
773.0	0.900
773.5	0.887
774.0	0.881
774.5	0.878
775.0	0.870
775.5	0.864
776.0	0.870
776.5	0.864
777.0	0.862
777.5	0.863
778.0	0.854
778.5	0.840
779.0	0.835
779.5	0.828
780.0	0.815
780.5	0.811
781.0	0.815
781.5	0.816
782.0	0.819
782.5	0.820
783.0	0.822
783.5	0.823
784.0	0.831
784.5	0.834
785.0	0.824
785.5	0.818
786.0	0.816
786.5	0.810
787.0	0.805
787.5	0.803
788.0	0.806
788.5	0.803
789.0	0.802
789.5	0.800
790.0	0.787
790.5	0.786
791.0	0.787
791.5	0.785
792.0	0.788
792.5	0.785
793.0	0.784
793.5	0.784
794.0	0.786
794.5	0.781
795.0	0.769
795.5	0.766
796.0	0.757
796.5	0.745
797.0	0.744
797.5	0.736
798.0	0.734
798.5	0.741
799.0	0.751
799.5	0.748
800.0	0.744
800.5	0.737
801.0	0.733
801.5	0.725
802.0	0.719
802.5	0.714
803.0	0.708
803.5	0.711
804.0	0.715
804.5	0.716
805.0	0.719
805.5	0.722
806.0	0.728
806.5	0.731
807.0	0.726
807.5	0.726
808.0	0.721
808.5	0.714
809.0	0.713
809.5	0.709
810.0	0.704
810.5	0.701
811.0	0.700
811.5	0.707
812.0	0.707
812.5	0.705
813.0	0.700
813.5	0.697
814.0	0.696
814.5	0.685
815.0	0.686
815.5	0.679
816.0	0.672
816.5	0.673
817.0	0.672
817.5	0.665
818.0	0.661
818.5	0.655
819.0	0.655
819.5	0.654
820.0	0.655
820.5	0.649
821.0	0.645
821.5	0.641
822.0	0.642
822.5	0.642
823.0	0.639
823.5	0.641
824.0	0.645
824.5	0.646
825.0	0.639
825.5	0.631
826.0	0.621
826.5	0.606
827.0	0.594
827.5	0.584
828.0	0.584
828.5	0.587
829.0	0.585
829.5	0.589
830.0	0.591
830.5	0.601
831.0	0.611
831.5	0.617
832.0	0.615
832.5	0.620
833.0	0.626
833.5	0.622
834.0	0.615
834.5	0.609
835.0	0.600
835.5	0.593
836.0	0.579
836.5	0.565
837.0	0.560
837.5	0.562
838.0	0.569
838.5	0.573
839.0	0.579
839.5	0.581
840.0	0.571
840.5	0.568
841.0	0.552
841.5	0.544
842.0	0.551
842.5	0.561
843.0	0.580
843.5	0.587
844.0	0.600
844.5	0.601
845.0	0.590
845.5	0.595
846.0	0.583
846.5	0.579
847.0	0.587
847.5	0.587
848.0	0.596
848.5	0.593
849.0	0.599
849.5	0.587
850.0	0.580


Sample 4
4/14/2025 4:18 PM
Wavelength (nm)	10mm Absorbance
//WLCalib: Shift 	0.11000	
//WLCalib: 261S 	0.08000	
//WLCalib: 362S 	-0.10000	
//WLCalib: 484S 	-0.09000	
//WLCalib: 529S 	0.30000	
//WLCalib: 823S 	-0.07000	
//QSpecEnd: 
190.0	11.126
190.5	12.483
191.0	13.584
191.5	14.545
192.0	15.312
192.5	15.963
193.0	16.391
193.5	16.677
194.0	16.632
194.5	16.358
195.0	16.106
195.5	15.510
196.0	14.859
196.5	14.291
197.0	13.591
197.5	12.935
198.0	12.283
198.5	11.670
199.0	11.123
199.5	10.594
200.0	10.116
200.5	9.705
201.0	9.286
201.5	8.924
202.0	8.607
202.5	8.332
203.0	8.128
203.5	7.967
204.0	7.834
204.5	7.729
205.0	7.637
205.5	7.583
206.0	7.503
206.5	7.460
207.0	7.416
207.5	7.382
208.0	7.335
208.5	7.306
209.0	7.265
209.5	7.245
210.0	7.223
210.5	7.216
211.0	7.209
211.5	7.202
212.0	7.189
212.5	7.173
213.0	7.165
213.5	7.160
214.0	7.145
214.5	7.141
215.0	7.143
215.5	7.134
216.0	7.123
216.5	7.114
217.0	7.106
217.5	7.088
218.0	7.077
218.5	7.065
219.0	7.056
219.5	7.056
220.0	7.051
220.5	7.037
221.0	7.019
221.5	7.014
222.0	7.010
222.5	6.995
223.0	6.987
223.5	6.991
224.0	6.987
224.5	6.981
225.0	6.970
225.5	6.958
226.0	6.942
226.5	6.923
227.0	6.903
227.5	6.874
228.0	6.849
228.5	6.828
229.0	6.810
229.5	6.796
230.0	6.792
230.5	6.794
231.0	6.796
231.5	6.796
232.0	6.798
232.5	6.799
233.0	6.796
233.5	6.795
234.0	6.793
234.5	6.790
235.0	6.785
235.5	6.786
236.0	6.788
236.5	6.789
237.0	6.786
237.5	6.787
238.0	6.783
238.5	6.784
239.0	6.784
239.5	6.784
240.0	6.780
240.5	6.778
241.0	6.774
241.5	6.767
242.0	6.757
242.5	6.751
243.0	6.749
243.5	6.754
244.0	6.765
244.5	6.775
245.0	6.779
245.5	6.781
246.0	6.778
246.5	6.773
247.0	6.761
247.5	6.748
248.0	6.741
248.5	6.749
249.0	6.762
249.5	6.775
250.0	6.790
250.5	6.798
251.0	6.803
251.5	6.802
252.0	6.797
252.5	6.790
253.0	6.784
253.5	6.785
254.0	6.790
254.5	6.805
255.0	6.813
255.5	6.809
256.0	6.800
256.5	6.793
257.0	6.787
257.5	6.771
258.0	6.747
258.5	6.729
259.0	6.711
259.5	6.694
260.0	6.678
260.5	6.666
261.0	6.662
261.5	6.668
262.0	6.675
262.5	6.678
263.0	6.677
263.5	6.678
264.0	6.674
264.5	6.667
265.0	6.660
265.5	6.645
266.0	6.636
266.5	6.625
267.0	6.618
267.5	6.603
268.0	6.595
268.5	6.592
269.0	6.584
269.5	6.572
270.0	6.559
270.5	6.541
271.0	6.530
271.5	6.510
272.0	6.496
272.5	6.480
273.0	6.466
273.5	6.456
274.0	6.445
274.5	6.439
275.0	6.426
275.5	6.413
276.0	6.404
276.5	6.390
277.0	6.377
277.5	6.361
278.0	6.348
278.5	6.341
279.0	6.332
279.5	6.318
280.0	6.301
280.5	6.287
281.0	6.273
281.5	6.249
282.0	6.233
282.5	6.216
283.0	6.205
283.5	6.194
284.0	6.189
284.5	6.180
285.0	6.173
285.5	6.156
286.0	6.141
286.5	6.124
287.0	6.117
287.5	6.101
288.0	6.089
288.5	6.088
289.0	6.086
289.5	6.081
290.0	6.075
290.5	6.058
291.0	6.047
291.5	6.038
292.0	6.034
292.5	6.030
293.0	6.029
293.5	6.027
294.0	6.021
294.5	6.018
295.0	6.012
295.5	6.000
296.0	5.989
296.5	5.982
297.0	5.980
297.5	5.980
298.0	5.984
298.5	5.987
299.0	5.992
299.5	5.998
300.0	6.004
300.5	6.001
301.0	6.002
301.5	6.002
302.0	6.006
302.5	6.010
303.0	6.017
303.5	6.021
304.0	6.029
304.5	6.029
305.0	6.030
305.5	6.024
306.0	6.023
306.5	6.016
307.0	6.010
307.5	6.001
308.0	5.997
308.5	6.001
309.0	6.007
309.5	6.009
310.0	6.015
310.5	6.014
311.0	6.013
311.5	6.012
312.0	6.008
312.5	6.005
313.0	6.005
313.5	6.006
314.0	6.005
314.5	6.006
315.0	6.009
315.5	6.010
316.0	6.013
316.5	6.020
317.0	6.023
317.5	6.025
318.0	6.027
318.5	6.024
319.0	6.021
319.5	6.017
320.0	6.015
320.5	6.012
321.0	6.013
321.5	6.015
322.0	6.017
322.5	6.014
323.0	6.011
323.5	6.010
324.0	6.013
324.5	6.015
325.0	6.018
325.5	6.022
326.0	6.029
326.5	6.027
327.0	6.023
327.5	6.016
328.0	6.013
328.5	6.016
329.0	6.012
329.5	6.013
330.0	6.011
330.5	6.013
331.0	6.020
331.5	6.016
332.0	6.013
332.5	6.014
333.0	6.016
333.5	6.010
334.0	6.003
334.5	6.005
335.0	5.994
335.5	5.998
336.0	6.005
336.5	6.002
337.0	6.004
337.5	6.006
338.0	6.006
338.5	5.996
339.0	5.995
339.5	5.994
340.0	5.993
340.5	5.998
341.0	5.997
341.5	5.992
342.0	5.993
342.5	5.994
343.0	5.996
343.5	5.995
344.0	5.999
344.5	5.999
345.0	6.005
345.5	6.006
346.0	6.000
346.5	5.989
347.0	5.987
347.5	5.984
348.0	5.978
348.5	5.973
349.0	5.968
349.5	5.965
350.0	5.973
350.5	5.982
351.0	5.986
351.5	5.987
352.0	5.995
352.5	5.993
353.0	5.982
353.5	5.972
354.0	5.963
354.5	5.955
355.0	5.949
355.5	5.943
356.0	5.936
356.5	5.931
357.0	5.929
357.5	5.921
358.0	5.917
358.5	5.918
359.0	5.917
359.5	5.911
360.0	5.907
360.5	5.901
361.0	5.892
361.5	5.881
362.0	5.873
362.5	5.863
363.0	5.866
363.5	5.871
364.0	5.874
364.5	5.872
365.0	5.876
365.5	5.874
366.0	5.871
366.5	5.864
367.0	5.858
367.5	5.846
368.0	5.847
368.5	5.847
369.0	5.853
369.5	5.858
370.0	5.860
370.5	5.861
371.0	5.860
371.5	5.858
372.0	5.853
372.5	5.848
373.0	5.848
373.5	5.851
374.0	5.865
374.5	5.873
375.0	5.876
375.5	5.879
376.0	5.881
376.5	5.888
377.0	5.889
377.5	5.898
378.0	5.903
378.5	5.913
379.0	5.925
379.5	5.931
380.0	5.936
380.5	5.937
381.0	5.941
381.5	5.943
382.0	5.936
382.5	5.934
383.0	5.928
383.5	5.923
384.0	5.919
384.5	5.911
385.0	5.913
385.5	5.913
386.0	5.915
386.5	5.907
387.0	5.898
387.5	5.884
388.0	5.872
388.5	5.858
389.0	5.847
389.5	5.836
390.0	5.831
390.5	5.822
391.0	5.813
391.5	5.803
392.0	5.792
392.5	5.775
393.0	5.764
393.5	5.753
394.0	5.740
394.5	5.725
395.0	5.710
395.5	5.698
396.0	5.690
396.5	5.684
397.0	5.677
397.5	5.668
398.0	5.667
398.5	5.659
399.0	5.648
399.5	5.641
400.0	5.629
400.5	5.622
401.0	5.616
401.5	5.611
402.0	5.602
402.5	5.594
403.0	5.589
403.5	5.581
404.0	5.575
404.5	5.571
405.0	5.562
405.5	5.558
406.0	5.554
406.5	5.550
407.0	5.545
407.5	5.546
408.0	5.546
408.5	5.547
409.0	5.546
409.5	5.541
410.0	5.536
410.5	5.534
411.0	5.534
411.5	5.531
412.0	5.530
412.5	5.534
413.0	5.535
413.5	5.536
414.0	5.538
414.5	5.537
415.0	5.544
415.5	5.548
416.0	5.554
416.5	5.551
417.0	5.549
417.5	5.552
418.0	5.551
418.5	5.558
419.0	5.567
419.5	5.577
420.0	5.593
420.5	5.605
421.0	5.620
421.5	5.630
422.0	5.648
422.5	5.672
423.0	5.691
423.5	5.711
424.0	5.730
424.5	5.753
425.0	5.775
425.5	5.795
426.0	5.821
426.5	5.849
427.0	5.885
427.5	5.921
428.0	5.955
428.5	5.991
429.0	6.025
429.5	6.065
430.0	6.103
430.5	6.139
431.0	6.183
431.5	6.229
432.0	6.273
432.5	6.320
433.0	6.368
433.5	6.412
434.0	6.450
434.5	6.491
435.0	6.527
435.5	6.563
436.0	6.604
436.5	6.651
437.0	6.694
437.5	6.745
438.0	6.799
438.5	6.852
439.0	6.900
439.5	6.947
440.0	6.996
440.5	7.042
441.0	7.084
441.5	7.127
442.0	7.168
442.5	7.211
443.0	7.255
443.5	7.302
444.0	7.347
444.5	7.396
445.0	7.443
445.5	7.486
446.0	7.530
446.5	7.570
447.0	7.614
447.5	7.656
448.0	7.699
448.5	7.744
449.0	7.788
449.5	7.826
450.0	7.864
450.5	7.899
451.0	7.937
451.5	7.974
452.0	8.014
452.5	8.048
453.0	8.089
453.5	8.128
454.0	8.165
454.5	8.195
455.0	8.228
455.5	8.250
456.0	8.277
456.5	8.299
457.0	8.322
457.5	8.346
458.0	8.376
458.5	8.406
459.0	8.428
459.5	8.448
460.0	8.466
460.5	8.488
461.0	8.509
461.5	8.525
462.0	8.547
462.5	8.571
463.0	8.594
463.5	8.617
464.0	8.627
464.5	8.642
465.0	8.660
465.5	8.686
466.0	8.703
466.5	8.719
467.0	8.738
467.5	8.753
468.0	8.764
468.5	8.776
469.0	8.778
469.5	8.788
470.0	8.802
470.5	8.813
471.0	8.818
471.5	8.829
472.0	8.838
472.5	8.846
473.0	8.859
473.5	8.869
474.0	8.879
474.5	8.897
475.0	8.906
475.5	8.918
476.0	8.926
476.5	8.938
477.0	8.944
477.5	8.951
478.0	8.967
478.5	8.973
479.0	8.979
479.5	8.985
480.0	8.987
480.5	8.990
481.0	8.996
481.5	9.003
482.0	9.002
482.5	9.004
483.0	9.011
483.5	9.010
484.0	9.011
484.5	9.009
485.0	9.009
485.5	9.017
486.0	9.030
486.5	9.036
487.0	9.041
487.5	9.051
488.0	9.061
488.5	9.067
489.0	9.069
489.5	9.072
490.0	9.076
490.5	9.090
491.0	9.097
491.5	9.097
492.0	9.100
492.5	9.102
493.0	9.108
493.5	9.113
494.0	9.113
494.5	9.117
495.0	9.125
495.5	9.135
496.0	9.141
496.5	9.149
497.0	9.155
497.5	9.161
498.0	9.176
498.5	9.188
499.0	9.198
499.5	9.202
500.0	9.210
500.5	9.215
501.0	9.218
501.5	9.223
502.0	9.227
502.5	9.234
503.0	9.243
503.5	9.250
504.0	9.257
504.5	9.258
505.0	9.271
505.5	9.283
506.0	9.286
506.5	9.295
507.0	9.300
507.5	9.309
508.0	9.310
508.5	9.315
509.0	9.319
509.5	9.324
510.0	9.345
510.5	9.351
511.0	9.362
511.5	9.372
512.0	9.378
512.5	9.389
513.0	9.396
513.5	9.408
514.0	9.426
514.5	9.444
515.0	9.460
515.5	9.460
516.0	9.470
516.5	9.471
517.0	9.472
517.5	9.475
518.0	9.474
518.5	9.476
519.0	9.483
519.5	9.489
520.0	9.499
520.5	9.499
521.0	9.504
521.5	9.515
522.0	9.526
522.5	9.547
523.0	9.559
523.5	9.561
524.0	9.566
524.5	9.564
525.0	9.564
525.5	9.569
526.0	9.566
526.5	9.573
527.0	9.579
527.5	9.592
528.0	9.597
528.5	9.596
529.0	9.596
529.5	9.588
530.0	9.587
530.5	9.591
531.0	9.592
531.5	9.594
532.0	9.594
532.5	9.600
533.0	9.599
533.5	9.599
534.0	9.599
534.5	9.598
535.0	9.593
535.5	9.589
536.0	9.581
536.5	9.579
537.0	9.575
537.5	9.575
538.0	9.572
538.5	9.572
539.0	9.575
539.5	9.574
540.0	9.560
540.5	9.549
541.0	9.533
541.5	9.519
542.0	9.505
542.5	9.493
543.0	9.483
543.5	9.475
544.0	9.471
544.5	9.464
545.0	9.452
545.5	9.443
546.0	9.429
546.5	9.411
547.0	9.394
547.5	9.373
548.0	9.362
548.5	9.352
549.0	9.341
549.5	9.329
550.0	9.304
550.5	9.277
551.0	9.242
551.5	9.213
552.0	9.185
552.5	9.166
553.0	9.155
553.5	9.130
554.0	9.116
554.5	9.101
555.0	9.059
555.5	9.030
556.0	9.000
556.5	8.969
557.0	8.938
557.5	8.913
558.0	8.886
558.5	8.845
559.0	8.818
559.5	8.791
560.0	8.753
560.5	8.726
561.0	8.696
561.5	8.659
562.0	8.616
562.5	8.585
563.0	8.549
563.5	8.516
564.0	8.493
564.5	8.467
565.0	8.434
565.5	8.396
566.0	8.360
566.5	8.319
567.0	8.271
567.5	8.226
568.0	8.183
568.5	8.148
569.0	8.111
569.5	8.079
570.0	8.044
570.5	8.001
571.0	7.965
571.5	7.930
572.0	7.890
572.5	7.843
573.0	7.805
573.5	7.759
574.0	7.713
574.5	7.675
575.0	7.637
575.5	7.591
576.0	7.555
576.5	7.519
577.0	7.480
577.5	7.439
578.0	7.403
578.5	7.350
579.0	7.307
579.5	7.265
580.0	7.221
580.5	7.175
581.0	7.131
581.5	7.088
582.0	7.044
582.5	7.002
583.0	6.963
583.5	6.920
584.0	6.882
584.5	6.845
585.0	6.808
585.5	6.769
586.0	6.726
586.5	6.682
587.0	6.629
587.5	6.578
588.0	6.540
588.5	6.500
589.0	6.458
589.5	6.421
590.0	6.388
590.5	6.346
591.0	6.300
591.5	6.256
592.0	6.204
592.5	6.158
593.0	6.125
593.5	6.088
594.0	6.055
594.5	6.025
595.0	5.990
595.5	5.951
596.0	5.912
596.5	5.883
597.0	5.842
597.5	5.803
598.0	5.768
598.5	5.735
599.0	5.706
599.5	5.669
600.0	5.632
600.5	5.592
601.0	5.557
601.5	5.518
602.0	5.476
602.5	5.434
603.0	5.395
603.5	5.362
604.0	5.333
604.5	5.300
605.0	5.269
605.5	5.239
606.0	5.212
606.5	5.178
607.0	5.149
607.5	5.122
608.0	5.090
608.5	5.059
609.0	5.026
609.5	4.987
610.0	4.955
610.5	4.925
611.0	4.896
611.5	4.868
612.0	4.850
612.5	4.833
613.0	4.808
613.5	4.787
614.0	4.759
614.5	4.724
615.0	4.695
615.5	4.665
616.0	4.639
616.5	4.615
617.0	4.594
617.5	4.570
618.0	4.543
618.5	4.520
619.0	4.493
619.5	4.466
620.0	4.444
620.5	4.424
621.0	4.396
621.5	4.371
622.0	4.345
622.5	4.318
623.0	4.292
623.5	4.266
624.0	4.241
624.5	4.221
625.0	4.203
625.5	4.186
626.0	4.161
626.5	4.141
627.0	4.122
627.5	4.101
628.0	4.080
628.5	4.062
629.0	4.035
629.5	4.013
630.0	3.994
630.5	3.973
631.0	3.953
631.5	3.934
632.0	3.907
632.5	3.889
633.0	3.868
633.5	3.850
634.0	3.828
634.5	3.812
635.0	3.793
635.5	3.773
636.0	3.750
636.5	3.730
637.0	3.708
637.5	3.696
638.0	3.685
638.5	3.676
639.0	3.661
639.5	3.646
640.0	3.626
640.5	3.601
641.0	3.574
641.5	3.555
642.0	3.542
642.5	3.530
643.0	3.519
643.5	3.508
644.0	3.492
644.5	3.474
645.0	3.451
645.5	3.428
646.0	3.408
646.5	3.391
647.0	3.378
647.5	3.366
648.0	3.349
648.5	3.339
649.0	3.321
649.5	3.299
650.0	3.279
650.5	3.263
651.0	3.247
651.5	3.233
652.0	3.218
652.5	3.208
653.0	3.192
653.5	3.181
654.0	3.162
654.5	3.144
655.0	3.134
655.5	3.119
656.0	3.105
656.5	3.099
657.0	3.084
657.5	3.072
658.0	3.057
658.5	3.040
659.0	3.019
659.5	3.000
660.0	2.989
660.5	2.970
661.0	2.963
661.5	2.962
662.0	2.956
662.5	2.943
663.0	2.926
663.5	2.909
664.0	2.889
664.5	2.865
665.0	2.853
665.5	2.841
666.0	2.829
666.5	2.814
667.0	2.802
667.5	2.782
668.0	2.769
668.5	2.755
669.0	2.743
669.5	2.734
670.0	2.729
670.5	2.722
671.0	2.704
671.5	2.689
672.0	2.677
672.5	2.661
673.0	2.649
673.5	2.636
674.0	2.632
674.5	2.630
675.0	2.614
675.5	2.602
676.0	2.588
676.5	2.575
677.0	2.567
677.5	2.555
678.0	2.549
678.5	2.542
679.0	2.535
679.5	2.523
680.0	2.506
680.5	2.497
681.0	2.486
681.5	2.470
682.0	2.455
682.5	2.440
683.0	2.426
683.5	2.411
684.0	2.393
684.5	2.381
685.0	2.379
685.5	2.379
686.0	2.378
686.5	2.370
687.0	2.359
687.5	2.349
688.0	2.334
688.5	2.321
689.0	2.305
689.5	2.294
690.0	2.286
690.5	2.277
691.0	2.270
691.5	2.259
692.0	2.247
692.5	2.242
693.0	2.230
693.5	2.220
694.0	2.207
694.5	2.197
695.0	2.186
695.5	2.179
696.0	2.171
696.5	2.163
697.0	2.155
697.5	2.144
698.0	2.131
698.5	2.121
699.0	2.107
699.5	2.098
700.0	2.093
700.5	2.090
701.0	2.085
701.5	2.079
702.0	2.070
702.5	2.061
703.0	2.054
703.5	2.045
704.0	2.031
704.5	2.023
705.0	2.013
705.5	2.003
706.0	1.992
706.5	1.989
707.0	1.984
707.5	1.980
708.0	1.970
708.5	1.962
709.0	1.955
709.5	1.952
710.0	1.940
710.5	1.933
711.0	1.927
711.5	1.927
712.0	1.914
712.5	1.904
713.0	1.889
713.5	1.885
714.0	1.886
714.5	1.885
715.0	1.875
715.5	1.869
716.0	1.866
716.5	1.861
717.0	1.844
717.5	1.829
718.0	1.815
718.5	1.805
719.0	1.793
719.5	1.784
720.0	1.768
720.5	1.759
721.0	1.760
721.5	1.757
722.0	1.748
722.5	1.744
723.0	1.744
723.5	1.740
724.0	1.735
724.5	1.730
725.0	1.722
725.5	1.721
726.0	1.717
726.5	1.708
727.0	1.696
727.5	1.682
728.0	1.671
728.5	1.660
729.0	1.650
729.5	1.647
730.0	1.649
730.5	1.650
731.0	1.649
731.5	1.642
732.0	1.629
732.5	1.616
733.0	1.600
733.5	1.582
734.0	1.574
734.5	1.567
735.0	1.563
735.5	1.564
736.0	1.562
736.5	1.564
737.0	1.564
737.5	1.562
738.0	1.554
738.5	1.545
739.0	1.539
739.5	1.526
740.0	1.516
740.5	1.502
741.0	1.493
741.5	1.489
742.0	1.484
742.5	1.482
743.0	1.485
743.5	1.490
744.0	1.488
744.5	1.486
745.0	1.479
745.5	1.464
746.0	1.462
746.5	1.452
747.0	1.446
747.5	1.442
748.0	1.444
748.5	1.442
749.0	1.427
749.5	1.414
750.0	1.401
750.5	1.393
751.0	1.391
751.5	1.387
752.0	1.392
752.5	1.398
753.0	1.395
753.5	1.388
754.0	1.382
754.5	1.373
755.0	1.366
755.5	1.364
756.0	1.360
756.5	1.356
757.0	1.351
757.5	1.344
758.0	1.322
758.5	1.312
759.0	1.309
759.5	1.305
760.0	1.303
760.5	1.305
761.0	1.301
761.5	1.294
762.0	1.287
762.5	1.278
763.0	1.266
763.5	1.261
764.0	1.255
764.5	1.252
765.0	1.247
765.5	1.243
766.0	1.243
766.5	1.240
767.0	1.237
767.5	1.231
768.0	1.233
768.5	1.229
769.0	1.220
769.5	1.227
770.0	1.230
770.5	1.231
771.0	1.238
771.5	1.231
772.0	1.226
772.5	1.220
773.0	1.213
773.5	1.198
774.0	1.186
774.5	1.186
775.0	1.180
775.5	1.177
776.0	1.179
776.5	1.169
777.0	1.168
777.5	1.161
778.0	1.147
778.5	1.130
779.0	1.121
779.5	1.116
780.0	1.109
780.5	1.113
781.0	1.121
781.5	1.119
782.0	1.123
782.5	1.122
783.0	1.119
783.5	1.111
784.0	1.110
784.5	1.110
785.0	1.099
785.5	1.096
786.0	1.094
786.5	1.092
787.0	1.090
787.5	1.087
788.0	1.086
788.5	1.077
789.0	1.074
789.5	1.074
790.0	1.062
790.5	1.064
791.0	1.067
791.5	1.072
792.0	1.070
792.5	1.064
793.0	1.064
793.5	1.062
794.0	1.057
794.5	1.053
795.0	1.041
795.5	1.033
796.0	1.024
796.5	1.011
797.0	1.003
797.5	0.996
798.0	1.000
798.5	1.008
799.0	1.014
799.5	1.013
800.0	1.010
800.5	1.006
801.0	1.000
801.5	0.994
802.0	0.983
802.5	0.972
803.0	0.966
803.5	0.973
804.0	0.975
804.5	0.976
805.0	0.980
805.5	0.979
806.0	0.981
806.5	0.980
807.0	0.967
807.5	0.957
808.0	0.953
808.5	0.957
809.0	0.954
809.5	0.952
810.0	0.947
810.5	0.942
811.0	0.937
811.5	0.932
812.0	0.915
812.5	0.914
813.0	0.919
813.5	0.921
814.0	0.924
814.5	0.926
815.0	0.927
815.5	0.916
816.0	0.902
816.5	0.886
817.0	0.871
817.5	0.875
818.0	0.875
818.5	0.868
819.0	0.876
819.5	0.879
820.0	0.877
820.5	0.870
821.0	0.868
821.5	0.865
822.0	0.867
822.5	0.876
823.0	0.877
823.5	0.877
824.0	0.880
824.5	0.875
825.0	0.865
825.5	0.855
826.0	0.842
826.5	0.825
827.0	0.809
827.5	0.796
828.0	0.795
828.5	0.794
829.0	0.784
829.5	0.784
830.0	0.788
830.5	0.804
831.0	0.817
831.5	0.823
832.0	0.820
832.5	0.828
833.0	0.841
833.5	0.839
834.0	0.833
834.5	0.833
835.0	0.828
835.5	0.822
836.0	0.808
836.5	0.789
837.0	0.776
837.5	0.773
838.0	0.780
838.5	0.780
839.0	0.784
839.5	0.785
840.0	0.776
840.5	0.771
841.0	0.762
841.5	0.759
842.0	0.766
842.5	0.774
843.0	0.785
843.5	0.772
844.0	0.773
844.5	0.763
845.0	0.752
845.5	0.752
846.0	0.742
846.5	0.738
847.0	0.753
847.5	0.754
848.0	0.764
848.5	0.763
849.0	0.779
849.5	0.782
850.0	0.784


Sample 5
4/14/2025 4:19 PM
Wavelength (nm)	10mm Absorbance
//WLCalib: Shift 	0.11000	
//WLCalib: 261S 	0.08000	
//WLCalib: 362S 	-0.10000	
//WLCalib: 484S 	-0.09000	
//WLCalib: 529S 	0.30000	
//WLCalib: 823S 	-0.07000	
//QSpecEnd: 
190.0	10.908
190.5	11.816
191.0	12.979
191.5	14.494
192.0	15.688
192.5	16.536
193.0	16.796
193.5	16.945
194.0	16.917
194.5	16.511
195.0	15.866
195.5	15.099
196.0	14.447
196.5	13.856
197.0	13.238
197.5	12.604
198.0	11.965
198.5	11.367
199.0	10.790
199.5	10.245
200.0	9.798
200.5	9.355
201.0	8.936
201.5	8.555
202.0	8.242
202.5	7.957
203.0	7.753
203.5	7.566
204.0	7.436
204.5	7.325
205.0	7.254
205.5	7.188
206.0	7.110
206.5	7.042
207.0	6.991
207.5	6.948
208.0	6.902
208.5	6.866
209.0	6.849
209.5	6.825
210.0	6.808
210.5	6.810
211.0	6.813
211.5	6.810
212.0	6.792
212.5	6.774
213.0	6.755
213.5	6.728
214.0	6.707
214.5	6.694
215.0	6.704
215.5	6.723
216.0	6.732
216.5	6.724
217.0	6.712
217.5	6.708
218.0	6.697
218.5	6.669
219.0	6.649
219.5	6.641
220.0	6.652
220.5	6.653
221.0	6.660
221.5	6.659
222.0	6.661
222.5	6.656
223.0	6.658
223.5	6.638
224.0	6.632
224.5	6.625
225.0	6.618
225.5	6.598
226.0	6.584
226.5	6.558
227.0	6.533
227.5	6.505
228.0	6.480
228.5	6.455
229.0	6.438
229.5	6.424
230.0	6.417
230.5	6.418
231.0	6.421
231.5	6.428
232.0	6.434
232.5	6.441
233.0	6.445
233.5	6.445
234.0	6.443
234.5	6.438
235.0	6.435
235.5	6.434
236.0	6.442
236.5	6.441
237.0	6.441
237.5	6.442
238.0	6.436
238.5	6.434
239.0	6.429
239.5	6.424
240.0	6.422
240.5	6.422
241.0	6.419
241.5	6.411
242.0	6.410
242.5	6.405
243.0	6.400
243.5	6.408
244.0	6.421
244.5	6.431
245.0	6.438
245.5	6.437
246.0	6.433
246.5	6.428
247.0	6.417
247.5	6.401
248.0	6.399
248.5	6.408
249.0	6.421
249.5	6.432
250.0	6.447
250.5	6.457
251.0	6.463
251.5	6.464
252.0	6.457
252.5	6.451
253.0	6.451
253.5	6.448
254.0	6.451
254.5	6.459
255.0	6.465
255.5	6.463
256.0	6.457
256.5	6.447
257.0	6.438
257.5	6.427
258.0	6.410
258.5	6.394
259.0	6.373
259.5	6.352
260.0	6.334
260.5	6.325
261.0	6.324
261.5	6.327
262.0	6.336
262.5	6.343
263.0	6.347
263.5	6.346
264.0	6.337
264.5	6.327
265.0	6.323
265.5	6.317
266.0	6.305
266.5	6.294
267.0	6.282
267.5	6.265
268.0	6.249
268.5	6.240
269.0	6.233
269.5	6.225
270.0	6.221
270.5	6.206
271.0	6.189
271.5	6.168
272.0	6.155
272.5	6.136
273.0	6.122
273.5	6.111
274.0	6.103
274.5	6.098
275.0	6.090
275.5	6.078
276.0	6.064
276.5	6.049
277.0	6.044
277.5	6.033
278.0	6.023
278.5	6.008
279.0	5.997
279.5	5.984
280.0	5.964
280.5	5.948
281.0	5.930
281.5	5.910
282.0	5.900
282.5	5.892
283.0	5.881
283.5	5.870
284.0	5.862
284.5	5.854
285.0	5.838
285.5	5.825
286.0	5.811
286.5	5.795
287.0	5.790
287.5	5.779
288.0	5.773
288.5	5.772
289.0	5.767
289.5	5.763
290.0	5.750
290.5	5.742
291.0	5.737
291.5	5.725
292.0	5.721
292.5	5.718
293.0	5.722
293.5	5.722
294.0	5.719
294.5	5.719
295.0	5.714
295.5	5.709
296.0	5.702
296.5	5.689
297.0	5.682
297.5	5.678
298.0	5.677
298.5	5.678
299.0	5.684
299.5	5.696
300.0	5.706
300.5	5.712
301.0	5.722
301.5	5.727
302.0	5.724
302.5	5.724
303.0	5.721
303.5	5.718
304.0	5.715
304.5	5.715
305.0	5.721
305.5	5.724
306.0	5.728
306.5	5.724
307.0	5.723
307.5	5.721
308.0	5.714
308.5	5.715
309.0	5.717
309.5	5.715
310.0	5.717
310.5	5.716
311.0	5.711
311.5	5.710
312.0	5.715
312.5	5.714
313.0	5.718
313.5	5.723
314.0	5.721
314.5	5.715
315.0	5.716
315.5	5.716
316.0	5.716
316.5	5.723
317.0	5.723
317.5	5.728
318.0	5.734
318.5	5.732
319.0	5.733
319.5	5.734
320.0	5.734
320.5	5.736
321.0	5.743
321.5	5.748
322.0	5.750
322.5	5.752
323.0	5.749
323.5	5.745
324.0	5.742
324.5	5.742
325.0	5.739
325.5	5.743
326.0	5.746
326.5	5.743
327.0	5.744
327.5	5.741
328.0	5.738
328.5	5.738
329.0	5.739
329.5	5.738
330.0	5.737
330.5	5.743
331.0	5.743
331.5	5.737
332.0	5.741
332.5	5.737
333.0	5.739
333.5	5.743
334.0	5.742
334.5	5.742
335.0	5.745
335.5	5.746
336.0	5.744
336.5	5.738
337.0	5.738
337.5	5.732
338.0	5.729
338.5	5.725
339.0	5.718
339.5	5.719
340.0	5.717
340.5	5.713
341.0	5.712
341.5	5.711
342.0	5.713
342.5	5.711
343.0	5.709
343.5	5.707
344.0	5.709
344.5	5.706
345.0	5.703
345.5	5.704
346.0	5.703
346.5	5.699
347.0	5.697
347.5	5.697
348.0	5.698
348.5	5.700
349.0	5.704
349.5	5.699
350.0	5.701
350.5	5.705
351.0	5.706
351.5	5.703
352.0	5.704
352.5	5.703
353.0	5.699
353.5	5.700
354.0	5.697
354.5	5.692
355.0	5.687
355.5	5.680
356.0	5.669
356.5	5.659
357.0	5.652
357.5	5.645
358.0	5.640
358.5	5.648
359.0	5.648
359.5	5.644
360.0	5.639
360.5	5.631
361.0	5.618
361.5	5.607
362.0	5.596
362.5	5.587
363.0	5.585
363.5	5.591
364.0	5.595
364.5	5.599
365.0	5.604
365.5	5.605
366.0	5.601
366.5	5.598
367.0	5.589
367.5	5.582
368.0	5.577
368.5	5.572
369.0	5.574
369.5	5.571
370.0	5.566
370.5	5.563
371.0	5.565
371.5	5.570
372.0	5.573
372.5	5.575
373.0	5.579
373.5	5.588
374.0	5.594
374.5	5.597
375.0	5.601
375.5	5.603
376.0	5.611
376.5	5.613
377.0	5.607
377.5	5.609
378.0	5.613
378.5	5.618
379.0	5.626
379.5	5.634
380.0	5.646
380.5	5.651
381.0	5.658
381.5	5.660
382.0	5.659
382.5	5.668
383.0	5.671
383.5	5.672
384.0	5.675
384.5	5.674
385.0	5.675
385.5	5.676
386.0	5.677
386.5	5.680
387.0	5.676
387.5	5.671
388.0	5.664
388.5	5.658
389.0	5.655
389.5	5.649
390.0	5.645
390.5	5.638
391.0	5.632
391.5	5.628
392.0	5.620
392.5	5.611
393.0	5.604
393.5	5.599
394.0	5.592
394.5	5.583
395.0	5.572
395.5	5.557
396.0	5.547
396.5	5.545
397.0	5.537
397.5	5.524
398.0	5.518
398.5	5.510
399.0	5.499
399.5	5.490
400.0	5.483
400.5	5.475
401.0	5.471
401.5	5.468
402.0	5.457
402.5	5.440
403.0	5.429
403.5	5.417
404.0	5.407
404.5	5.397
405.0	5.393
405.5	5.387
406.0	5.385
406.5	5.382
407.0	5.375
407.5	5.370
408.0	5.364
408.5	5.358
409.0	5.355
409.5	5.347
410.0	5.341
410.5	5.335
411.0	5.332
411.5	5.326
412.0	5.321
412.5	5.316
413.0	5.313
413.5	5.311
414.0	5.316
414.5	5.313
415.0	5.310
415.5	5.309
416.0	5.306
416.5	5.297
417.0	5.287
417.5	5.278
418.0	5.272
418.5	5.269
419.0	5.269
419.5	5.267
420.0	5.271
420.5	5.271
421.0	5.271
421.5	5.270
422.0	5.275
422.5	5.282
423.0	5.286
423.5	5.292
424.0	5.300
424.5	5.312
425.0	5.323
425.5	5.330
426.0	5.341
426.5	5.355
427.0	5.377
427.5	5.397
428.0	5.415
428.5	5.436
429.0	5.455
429.5	5.478
430.0	5.502
430.5	5.522
431.0	5.546
431.5	5.572
432.0	5.595
432.5	5.620
433.0	5.648
433.5	5.678
434.0	5.700
434.5	5.724
435.0	5.749
435.5	5.773
436.0	5.799
436.5	5.830
437.0	5.858
437.5	5.890
438.0	5.928
438.5	5.961
439.0	5.991
439.5	6.021
440.0	6.054
440.5	6.084
441.0	6.114
441.5	6.147
442.0	6.181
442.5	6.213
443.0	6.248
443.5	6.283
444.0	6.322
444.5	6.362
445.0	6.398
445.5	6.427
446.0	6.463
446.5	6.500
447.0	6.536
447.5	6.571
448.0	6.609
448.5	6.648
449.0	6.686
449.5	6.726
450.0	6.763
450.5	6.801
451.0	6.842
451.5	6.885
452.0	6.922
452.5	6.957
453.0	6.994
453.5	7.030
454.0	7.063
454.5	7.099
455.0	7.132
455.5	7.163
456.0	7.196
456.5	7.228
457.0	7.259
457.5	7.289
458.0	7.323
458.5	7.357
459.0	7.381
459.5	7.405
460.0	7.425
460.5	7.450
461.0	7.474
461.5	7.494
462.0	7.520
462.5	7.547
463.0	7.570
463.5	7.597
464.0	7.612
464.5	7.632
465.0	7.656
465.5	7.683
466.0	7.703
466.5	7.727
467.0	7.751
467.5	7.769
468.0	7.781
468.5	7.800
469.0	7.810
469.5	7.822
470.0	7.844
470.5	7.864
471.0	7.879
471.5	7.899
472.0	7.916
472.5	7.934
473.0	7.947
473.5	7.968
474.0	7.982
474.5	7.995
475.0	8.015
475.5	8.028
476.0	8.038
476.5	8.047
477.0	8.059
477.5	8.075
478.0	8.092
478.5	8.112
479.0	8.132
479.5	8.151
480.0	8.169
480.5	8.181
481.0	8.192
481.5	8.202
482.0	8.208
482.5	8.216
483.0	8.225
483.5	8.231
484.0	8.239
484.5	8.243
485.0	8.250
485.5	8.255
486.0	8.264
486.5	8.268
487.0	8.277
487.5	8.292
488.0	8.310
488.5	8.326
489.0	8.344
489.5	8.359
490.0	8.376
490.5	8.385
491.0	8.391
491.5	8.391
492.0	8.400
492.5	8.407
493.0	8.417
493.5	8.427
494.0	8.439
494.5	8.448
495.0	8.458
495.5	8.464
496.0	8.468
496.5	8.475
497.0	8.489
497.5	8.498
498.0	8.518
498.5	8.528
499.0	8.543
499.5	8.549
500.0	8.554
500.5	8.560
501.0	8.566
501.5	8.575
502.0	8.589
502.5	8.602
503.0	8.613
503.5	8.620
504.0	8.631
504.5	8.631
505.0	8.636
505.5	8.646
506.0	8.654
506.5	8.666
507.0	8.674
507.5	8.681
508.0	8.684
508.5	8.694
509.0	8.702
509.5	8.712
510.0	8.735
510.5	8.749
511.0	8.762
511.5	8.768
512.0	8.776
512.5	8.782
513.0	8.784
513.5	8.791
514.0	8.805
514.5	8.817
515.0	8.832
515.5	8.841
516.0	8.852
516.5	8.860
517.0	8.867
517.5	8.876
518.0	8.881
518.5	8.892
519.0	8.904
519.5	8.900
520.0	8.907
520.5	8.914
521.0	8.917
521.5	8.924
522.0	8.936
522.5	8.956
523.0	8.972
523.5	8.985
524.0	9.001
524.5	8.998
525.0	9.008
525.5	9.008
526.0	9.009
526.5	9.015
527.0	9.020
527.5	9.023
528.0	9.024
528.5	9.029
529.0	9.040
529.5	9.037
530.0	9.046
530.5	9.052
531.0	9.065
531.5	9.071
532.0	9.074
532.5	9.081
533.0	9.090
533.5	9.098
534.0	9.100
534.5	9.101
535.0	9.103
535.5	9.102
536.0	9.107
536.5	9.108
537.0	9.113
537.5	9.118
538.0	9.134
538.5	9.142
539.0	9.147
539.5	9.156
540.0	9.153
540.5	9.151
541.0	9.142
541.5	9.135
542.0	9.124
542.5	9.111
543.0	9.111
543.5	9.109
544.0	9.114
544.5	9.127
545.0	9.133
545.5	9.133
546.0	9.128
546.5	9.122
547.0	9.106
547.5	9.093
548.0	9.088
548.5	9.087
549.0	9.087
549.5	9.096
550.0	9.095
550.5	9.087
551.0	9.080
551.5	9.073
552.0	9.067
552.5	9.063
553.0	9.054
553.5	9.045
554.0	9.034
554.5	9.023
555.0	9.006
555.5	8.989
556.0	8.974
556.5	8.957
557.0	8.949
557.5	8.941
558.0	8.934
558.5	8.932
559.0	8.921
559.5	8.911
560.0	8.898
560.5	8.881
561.0	8.861
561.5	8.836
562.0	8.819
562.5	8.807
563.0	8.796
563.5	8.785
564.0	8.766
564.5	8.755
565.0	8.742
565.5	8.727
566.0	8.706
566.5	8.688
567.0	8.672
567.5	8.655
568.0	8.636
568.5	8.614
569.0	8.595
569.5	8.578
570.0	8.561
570.5	8.535
571.0	8.513
571.5	8.498
572.0	8.476
572.5	8.453
573.0	8.429
573.5	8.398
574.0	8.382
574.5	8.361
575.0	8.337
575.5	8.305
576.0	8.282
576.5	8.259
577.0	8.225
577.5	8.192
578.0	8.164
578.5	8.128
579.0	8.103
579.5	8.080
580.0	8.050
580.5	8.019
581.0	7.995
581.5	7.970
582.0	7.941
582.5	7.908
583.0	7.886
583.5	7.860
584.0	7.832
584.5	7.807
585.0	7.779
585.5	7.750
586.0	7.729
586.5	7.700
587.0	7.669
587.5	7.639
588.0	7.609
588.5	7.581
589.0	7.543
589.5	7.502
590.0	7.467
590.5	7.432
591.0	7.403
591.5	7.371
592.0	7.340
592.5	7.303
593.0	7.270
593.5	7.243
594.0	7.207
594.5	7.174
595.0	7.142
595.5	7.110
596.0	7.084
596.5	7.058
597.0	7.020
597.5	6.987
598.0	6.957
598.5	6.930
599.0	6.899
599.5	6.872
600.0	6.834
600.5	6.802
601.0	6.773
601.5	6.741
602.0	6.706
602.5	6.670
603.0	6.635
603.5	6.602
604.0	6.569
604.5	6.532
605.0	6.498
605.5	6.472
606.0	6.446
606.5	6.420
607.0	6.396
607.5	6.366
608.0	6.338
608.5	6.305
609.0	6.270
609.5	6.234
610.0	6.211
610.5	6.188
611.0	6.164
611.5	6.143
612.0	6.127
612.5	6.107
613.0	6.083
613.5	6.056
614.0	6.021
614.5	5.984
615.0	5.952
615.5	5.922
616.0	5.896
616.5	5.873
617.0	5.852
617.5	5.827
618.0	5.805
618.5	5.783
619.0	5.751
619.5	5.719
620.0	5.690
620.5	5.664
621.0	5.631
621.5	5.600
622.0	5.571
622.5	5.547
623.0	5.527
623.5	5.508
624.0	5.482
624.5	5.461
625.0	5.443
625.5	5.421
626.0	5.393
626.5	5.363
627.0	5.333
627.5	5.308
628.0	5.289
628.5	5.268
629.0	5.243
629.5	5.224
630.0	5.203
630.5	5.183
631.0	5.160
631.5	5.130
632.0	5.094
632.5	5.071
633.0	5.050
633.5	5.030
634.0	5.009
634.5	4.996
635.0	4.973
635.5	4.949
636.0	4.922
636.5	4.899
637.0	4.870
637.5	4.850
638.0	4.829
638.5	4.811
639.0	4.790
639.5	4.773
640.0	4.755
640.5	4.732
641.0	4.711
641.5	4.693
642.0	4.665
642.5	4.646
643.0	4.621
643.5	4.599
644.0	4.580
644.5	4.559
645.0	4.544
645.5	4.525
646.0	4.503
646.5	4.484
647.0	4.462
647.5	4.437
648.0	4.417
648.5	4.398
649.0	4.380
649.5	4.357
650.0	4.336
650.5	4.312
651.0	4.291
651.5	4.272
652.0	4.250
652.5	4.227
653.0	4.213
653.5	4.191
654.0	4.172
654.5	4.151
655.0	4.132
655.5	4.115
656.0	4.100
656.5	4.084
657.0	4.070
657.5	4.054
658.0	4.037
658.5	4.017
659.0	3.993
659.5	3.966
660.0	3.946
660.5	3.929
661.0	3.913
661.5	3.903
662.0	3.893
662.5	3.875
663.0	3.857
663.5	3.842
664.0	3.817
664.5	3.791
665.0	3.768
665.5	3.750
666.0	3.730
666.5	3.711
667.0	3.692
667.5	3.670
668.0	3.650
668.5	3.639
669.0	3.626
669.5	3.614
670.0	3.601
670.5	3.587
671.0	3.568
671.5	3.547
672.0	3.524
672.5	3.500
673.0	3.475
673.5	3.465
674.0	3.451
674.5	3.442
675.0	3.426
675.5	3.409
676.0	3.394
676.5	3.382
677.0	3.371
677.5	3.361
678.0	3.357
678.5	3.344
679.0	3.326
679.5	3.306
680.0	3.280
680.5	3.258
681.0	3.239
681.5	3.224
682.0	3.202
682.5	3.188
683.0	3.174
683.5	3.151
684.0	3.133
684.5	3.125
685.0	3.122
685.5	3.119
686.0	3.109
686.5	3.100
687.0	3.080
687.5	3.065
688.0	3.048
688.5	3.034
689.0	3.018
689.5	3.011
690.0	2.996
690.5	2.978
691.0	2.958
691.5	2.939
692.0	2.922
692.5	2.912
693.0	2.895
693.5	2.889
694.0	2.874
694.5	2.862
695.0	2.844
695.5	2.832
696.0	2.819
696.5	2.808
697.0	2.802
697.5	2.789
698.0	2.770
698.5	2.764
699.0	2.741
699.5	2.730
700.0	2.717
700.5	2.708
701.0	2.697
701.5	2.685
702.0	2.676
702.5	2.660
703.0	2.645
703.5	2.634
704.0	2.623
704.5	2.620
705.0	2.612
705.5	2.601
706.0	2.588
706.5	2.578
707.0	2.565
707.5	2.548
708.0	2.527
708.5	2.510
709.0	2.505
709.5	2.500
710.0	2.489
710.5	2.479
711.0	2.469
711.5	2.459
712.0	2.443
712.5	2.433
713.0	2.414
713.5	2.406
714.0	2.406
714.5	2.401
715.0	2.394
715.5	2.389
716.0	2.376
716.5	2.358
717.0	2.344
717.5	2.329
718.0	2.313
718.5	2.304
719.0	2.293
719.5	2.287
720.0	2.278
720.5	2.264
721.0	2.251
721.5	2.236
722.0	2.229
722.5	2.223
723.0	2.220
723.5	2.212
724.0	2.204
724.5	2.201
725.0	2.192
725.5	2.184
726.0	2.180
726.5	2.173
727.0	2.169
727.5	2.158
728.0	2.136
728.5	2.117
729.0	2.095
729.5	2.086
730.0	2.083
730.5	2.080
731.0	2.074
731.5	2.064
732.0	2.050
732.5	2.029
733.0	2.008
733.5	1.988
734.0	1.978
734.5	1.977
735.0	1.973
735.5	1.974
736.0	1.968
736.5	1.970
737.0	1.965
737.5	1.962
738.0	1.956
738.5	1.945
739.0	1.939
739.5	1.925
740.0	1.910
740.5	1.895
741.0	1.885
741.5	1.880
742.0	1.864
742.5	1.861
743.0	1.862
743.5	1.866
744.0	1.868
744.5	1.859
745.0	1.845
745.5	1.827
746.0	1.821
746.5	1.814
747.0	1.800
747.5	1.800
748.0	1.806
748.5	1.808
749.0	1.796
749.5	1.778
750.0	1.757
750.5	1.742
751.0	1.742
751.5	1.737
752.0	1.731
752.5	1.733
753.0	1.730
753.5	1.723
754.0	1.716
754.5	1.710
755.0	1.699
755.5	1.693
756.0	1.684
756.5	1.676
757.0	1.669
757.5	1.663
758.0	1.651
758.5	1.643
759.0	1.639
759.5	1.632
760.0	1.620
760.5	1.608
761.0	1.596
761.5	1.592
762.0	1.586
762.5	1.577
763.0	1.566
763.5	1.556
764.0	1.549
764.5	1.538
765.0	1.523
765.5	1.516
766.0	1.518
766.5	1.519
767.0	1.515
767.5	1.515
768.0	1.520
768.5	1.520
769.0	1.518
769.5	1.520
770.0	1.526
770.5	1.530
771.0	1.535
771.5	1.526
772.0	1.513
772.5	1.500
773.0	1.484
773.5	1.463
774.0	1.446
774.5	1.444
775.0	1.440
775.5	1.434
776.0	1.434
776.5	1.425
777.0	1.421
777.5	1.413
778.0	1.403
778.5	1.391
779.0	1.384
779.5	1.380
780.0	1.366
780.5	1.358
781.0	1.353
781.5	1.345
782.0	1.344
782.5	1.344
783.0	1.352
783.5	1.357
784.0	1.362
784.5	1.366
785.0	1.356
785.5	1.350
786.0	1.346
786.5	1.346
787.0	1.344
787.5	1.343
788.0	1.341
788.5	1.331
789.0	1.316
789.5	1.305
790.0	1.287
790.5	1.287
791.0	1.288
791.5	1.286
792.0	1.289
792.5	1.283
793.0	1.274
793.5	1.271
794.0	1.260
794.5	1.254
795.0	1.243
795.5	1.240
796.0	1.228
796.5	1.217
797.0	1.219
797.5	1.214
798.0	1.216
798.5	1.221
799.0	1.225
799.5	1.229
800.0	1.217
800.5	1.214
801.0	1.206
801.5	1.197
802.0	1.192
802.5	1.181
803.0	1.172
803.5	1.164
804.0	1.156
804.5	1.155
805.0	1.152
805.5	1.160
806.0	1.168
806.5	1.176
807.0	1.174
807.5	1.163
808.0	1.159
808.5	1.153
809.0	1.145
809.5	1.144
810.0	1.141
810.5	1.139
811.0	1.138
811.5	1.136
812.0	1.109
812.5	1.096
813.0	1.092
813.5	1.095
814.0	1.101
814.5	1.095
815.0	1.101
815.5	1.101
816.0	1.091
816.5	1.077
817.0	1.055
817.5	1.047
818.0	1.040
818.5	1.037
819.0	1.034
819.5	1.036
820.0	1.041
820.5	1.042
821.0	1.038
821.5	1.034
822.0	1.029
822.5	1.031
823.0	1.026
823.5	1.020
824.0	1.019
824.5	1.021
825.0	1.014
825.5	1.005
826.0	0.991
826.5	0.977
827.0	0.961
827.5	0.948
828.0	0.946
828.5	0.950
829.0	0.944
829.5	0.945
830.0	0.948
830.5	0.955
831.0	0.967
831.5	0.976
832.0	0.975
832.5	0.983
833.0	0.995
833.5	0.989
834.0	0.976
834.5	0.961
835.0	0.944
835.5	0.930
836.0	0.915
836.5	0.910
837.0	0.915
837.5	0.927
838.0	0.943
838.5	0.949
839.0	0.954
839.5	0.945
840.0	0.937
840.5	0.918
841.0	0.895
841.5	0.884
842.0	0.883
842.5	0.896
843.0	0.900
843.5	0.897
844.0	0.910
844.5	0.915
845.0	0.914
845.5	0.906
846.0	0.888
846.5	0.880
847.0	0.892
847.5	0.899
848.0	0.900
848.5	0.904
849.0	0.917
849.5	0.909
850.0	0.910


Sample 6
4/14/2025 4:20 PM
Wavelength (nm)	10mm Absorbance
//WLCalib: Shift 	0.11000	
//WLCalib: 261S 	0.08000	
//WLCalib: 362S 	-0.10000	
//WLCalib: 484S 	-0.09000	
//WLCalib: 529S 	0.30000	
//WLCalib: 823S 	-0.07000	
//QSpecEnd: 
190.0	9.666
190.5	11.165
191.0	12.309
191.5	13.800
192.0	14.791
192.5	15.424
193.0	15.936
193.5	16.362
194.0	16.431
194.5	16.067
195.0	15.647
195.5	15.186
196.0	14.368
196.5	13.833
197.0	13.021
197.5	12.351
198.0	11.703
198.5	11.051
199.0	10.522
199.5	10.028
200.0	9.556
200.5	9.164
201.0	8.751
201.5	8.377
202.0	8.014
202.5	7.720
203.0	7.471
203.5	7.283
204.0	7.145
204.5	7.028
205.0	6.932
205.5	6.871
206.0	6.815
206.5	6.764
207.0	6.716
207.5	6.700
208.0	6.666
208.5	6.641
209.0	6.601
209.5	6.584
210.0	6.571
210.5	6.553
211.0	6.552
211.5	6.536
212.0	6.524
212.5	6.517
213.0	6.496
213.5	6.477
214.0	6.460
214.5	6.450
215.0	6.449
215.5	6.449
216.0	6.452
216.5	6.437
217.0	6.435
217.5	6.424
218.0	6.409
218.5	6.409
219.0	6.401
219.5	6.388
220.0	6.388
220.5	6.378
221.0	6.378
221.5	6.369
222.0	6.371
222.5	6.368
223.0	6.369
223.5	6.362
224.0	6.346
224.5	6.325
225.0	6.312
225.5	6.300
226.0	6.283
226.5	6.262
227.0	6.247
227.5	6.226
228.0	6.211
228.5	6.191
229.0	6.172
229.5	6.163
230.0	6.157
230.5	6.161
231.0	6.162
231.5	6.166
232.0	6.171
232.5	6.176
233.0	6.178
233.5	6.176
234.0	6.175
234.5	6.173
235.0	6.166
235.5	6.168
236.0	6.169
236.5	6.166
237.0	6.165
237.5	6.167
238.0	6.165
238.5	6.168
239.0	6.170
239.5	6.168
240.0	6.165
240.5	6.164
241.0	6.161
241.5	6.149
242.0	6.146
242.5	6.141
243.0	6.138
243.5	6.149
244.0	6.159
244.5	6.169
245.0	6.175
245.5	6.176
246.0	6.175
246.5	6.166
247.0	6.158
247.5	6.144
248.0	6.145
248.5	6.153
249.0	6.164
249.5	6.176
250.0	6.188
250.5	6.194
251.0	6.196
251.5	6.194
252.0	6.191
252.5	6.189
253.0	6.194
253.5	6.194
254.0	6.210
254.5	6.224
255.0	6.229
255.5	6.223
256.0	6.216
256.5	6.202
257.0	6.190
257.5	6.177
258.0	6.161
258.5	6.140
259.0	6.126
259.5	6.105
260.0	6.088
260.5	6.076
261.0	6.075
261.5	6.075
262.0	6.085
262.5	6.095
263.0	6.094
263.5	6.093
264.0	6.092
264.5	6.089
265.0	6.083
265.5	6.071
266.0	6.063
266.5	6.047
267.0	6.032
267.5	6.013
268.0	5.998
268.5	5.992
269.0	5.989
269.5	5.982
270.0	5.969
270.5	5.956
271.0	5.941
271.5	5.924
272.0	5.907
272.5	5.892
273.0	5.879
273.5	5.868
274.0	5.863
274.5	5.856
275.0	5.849
275.5	5.839
276.0	5.827
276.5	5.819
277.0	5.806
277.5	5.792
278.0	5.775
278.5	5.758
279.0	5.745
279.5	5.729
280.0	5.710
280.5	5.689
281.0	5.671
281.5	5.660
282.0	5.653
282.5	5.647
283.0	5.638
283.5	5.631
284.0	5.625
284.5	5.616
285.0	5.605
285.5	5.589
286.0	5.577
286.5	5.565
287.0	5.562
287.5	5.552
288.0	5.545
288.5	5.542
289.0	5.539
289.5	5.533
290.0	5.524
290.5	5.511
291.0	5.502
291.5	5.494
292.0	5.491
292.5	5.491
293.0	5.490
293.5	5.486
294.0	5.482
294.5	5.479
295.0	5.479
295.5	5.474
296.0	5.470
296.5	5.464
297.0	5.461
297.5	5.460
298.0	5.455
298.5	5.455
299.0	5.459
299.5	5.468
300.0	5.479
300.5	5.484
301.0	5.492
301.5	5.494
302.0	5.495
302.5	5.496
303.0	5.497
303.5	5.498
304.0	5.498
304.5	5.498
305.0	5.499
305.5	5.500
306.0	5.502
306.5	5.500
307.0	5.499
307.5	5.495
308.0	5.492
308.5	5.494
309.0	5.495
309.5	5.497
310.0	5.497
310.5	5.499
311.0	5.499
311.5	5.496
312.0	5.494
312.5	5.489
313.0	5.490
313.5	5.491
314.0	5.492
314.5	5.497
315.0	5.499
315.5	5.505
316.0	5.510
316.5	5.516
317.0	5.519
317.5	5.522
318.0	5.521
318.5	5.520
319.0	5.524
319.5	5.527
320.0	5.519
320.5	5.516
321.0	5.517
321.5	5.519
322.0	5.523
322.5	5.524
323.0	5.521
323.5	5.528
324.0	5.532
324.5	5.533
325.0	5.530
325.5	5.530
326.0	5.535
326.5	5.537
327.0	5.539
327.5	5.537
328.0	5.535
328.5	5.536
329.0	5.534
329.5	5.529
330.0	5.529
330.5	5.531
331.0	5.537
331.5	5.538
332.0	5.537
332.5	5.540
333.0	5.538
333.5	5.540
334.0	5.536
334.5	5.535
335.0	5.535
335.5	5.538
336.0	5.538
336.5	5.534
337.0	5.529
337.5	5.526
338.0	5.519
338.5	5.521
339.0	5.518
339.5	5.520
340.0	5.517
340.5	5.514
341.0	5.514
341.5	5.516
342.0	5.516
342.5	5.519
343.0	5.522
343.5	5.525
344.0	5.526
344.5	5.519
345.0	5.514
345.5	5.508
346.0	5.508
346.5	5.508
347.0	5.506
347.5	5.508
348.0	5.508
348.5	5.504
349.0	5.505
349.5	5.499
350.0	5.499
350.5	5.502
351.0	5.506
351.5	5.508
352.0	5.509
352.5	5.512
353.0	5.512
353.5	5.504
354.0	5.499
354.5	5.493
355.0	5.487
355.5	5.482
356.0	5.473
356.5	5.465
357.0	5.461
357.5	5.456
358.0	5.452
358.5	5.449
359.0	5.447
359.5	5.442
360.0	5.436
360.5	5.426
361.0	5.412
361.5	5.403
362.0	5.395
362.5	5.390
363.0	5.389
363.5	5.391
364.0	5.395
364.5	5.397
365.0	5.401
365.5	5.399
366.0	5.395
366.5	5.394
367.0	5.386
367.5	5.379
368.0	5.372
368.5	5.367
369.0	5.368
369.5	5.368
370.0	5.364
370.5	5.368
371.0	5.368
371.5	5.369
372.0	5.367
372.5	5.368
373.0	5.364
373.5	5.367
374.0	5.371
374.5	5.375
375.0	5.379
375.5	5.388
376.0	5.390
376.5	5.391
377.0	5.390
377.5	5.386
378.0	5.385
378.5	5.393
379.0	5.405
379.5	5.417
380.0	5.429
380.5	5.442
381.0	5.452
381.5	5.455
382.0	5.459
382.5	5.458
383.0	5.462
383.5	5.464
384.0	5.474
384.5	5.479
385.0	5.484
385.5	5.493
386.0	5.503
386.5	5.511
387.0	5.515
387.5	5.515
388.0	5.517
388.5	5.517
389.0	5.519
389.5	5.518
390.0	5.514
390.5	5.509
391.0	5.509
391.5	5.505
392.0	5.501
392.5	5.498
393.0	5.498
393.5	5.498
394.0	5.494
394.5	5.489
395.0	5.482
395.5	5.474
396.0	5.470
396.5	5.464
397.0	5.455
397.5	5.443
398.0	5.440
398.5	5.431
399.0	5.422
399.5	5.412
400.0	5.399
400.5	5.392
401.0	5.384
401.5	5.376
402.0	5.364
402.5	5.351
403.0	5.347
403.5	5.335
404.0	5.327
404.5	5.310
405.0	5.294
405.5	5.289
406.0	5.280
406.5	5.270
407.0	5.261
407.5	5.257
408.0	5.251
408.5	5.249
409.0	5.241
409.5	5.224
410.0	5.214
410.5	5.210
411.0	5.204
411.5	5.194
412.0	5.188
412.5	5.187
413.0	5.184
413.5	5.183
414.0	5.182
414.5	5.175
415.0	5.172
415.5	5.166
416.0	5.157
416.5	5.142
417.0	5.129
417.5	5.123
418.0	5.117
418.5	5.115
419.0	5.116
419.5	5.110
420.0	5.109
420.5	5.101
421.0	5.096
421.5	5.089
422.0	5.085
422.5	5.083
423.0	5.081
423.5	5.085
424.0	5.085
424.5	5.083
425.0	5.083
425.5	5.084
426.0	5.083
426.5	5.090
427.0	5.097
427.5	5.103
428.0	5.113
428.5	5.124
429.0	5.135
429.5	5.143
430.0	5.153
430.5	5.159
431.0	5.166
431.5	5.178
432.0	5.185
432.5	5.194
433.0	5.209
433.5	5.222
434.0	5.231
434.5	5.240
435.0	5.253
435.5	5.258
436.0	5.269
436.5	5.283
437.0	5.292
437.5	5.305
438.0	5.324
438.5	5.339
439.0	5.350
439.5	5.367
440.0	5.382
440.5	5.398
441.0	5.415
441.5	5.435
442.0	5.451
442.5	5.469
443.0	5.488
443.5	5.511
444.0	5.534
444.5	5.558
445.0	5.576
445.5	5.597
446.0	5.621
446.5	5.643
447.0	5.669
447.5	5.692
448.0	5.718
448.5	5.751
449.0	5.779
449.5	5.808
450.0	5.839
450.5	5.869
451.0	5.900
451.5	5.925
452.0	5.955
452.5	5.979
453.0	6.008
453.5	6.040
454.0	6.073
454.5	6.106
455.0	6.141
455.5	6.173
456.0	6.201
456.5	6.229
457.0	6.260
457.5	6.291
458.0	6.325
458.5	6.359
459.0	6.387
459.5	6.412
460.0	6.432
460.5	6.458
461.0	6.482
461.5	6.508
462.0	6.538
462.5	6.572
463.0	6.597
463.5	6.625
464.0	6.645
464.5	6.672
465.0	6.700
465.5	6.736
466.0	6.767
466.5	6.799
467.0	6.828
467.5	6.854
468.0	6.871
468.5	6.892
469.0	6.908
469.5	6.929
470.0	6.954
470.5	6.980
471.0	7.002
471.5	7.028
472.0	7.054
472.5	7.077
473.0	7.100
473.5	7.126
474.0	7.149
474.5	7.169
475.0	7.189
475.5	7.211
476.0	7.225
476.5	7.244
477.0	7.265
477.5	7.288
478.0	7.311
478.5	7.336
479.0	7.356
479.5	7.377
480.0	7.396
480.5	7.417
481.0	7.434
481.5	7.450
482.0	7.464
482.5	7.482
483.0	7.496
483.5	7.505
484.0	7.515
484.5	7.528
485.0	7.538
485.5	7.551
486.0	7.568
486.5	7.578
487.0	7.589
487.5	7.605
488.0	7.621
488.5	7.638
489.0	7.660
489.5	7.678
490.0	7.696
490.5	7.714
491.0	7.735
491.5	7.750
492.0	7.767
492.5	7.780
493.0	7.794
493.5	7.807
494.0	7.816
494.5	7.821
495.0	7.829
495.5	7.843
496.0	7.862
496.5	7.879
497.0	7.895
497.5	7.909
498.0	7.924
498.5	7.942
499.0	7.954
499.5	7.960
500.0	7.969
500.5	7.982
501.0	7.992
501.5	8.002
502.0	8.015
502.5	8.029
503.0	8.041
503.5	8.055
504.0	8.064
504.5	8.066
505.0	8.068
505.5	8.078
506.0	8.090
506.5	8.101
507.0	8.111
507.5	8.122
508.0	8.133
508.5	8.141
509.0	8.145
509.5	8.157
510.0	8.166
510.5	8.183
511.0	8.203
511.5	8.214
512.0	8.224
512.5	8.234
513.0	8.244
513.5	8.247
514.0	8.256
514.5	8.269
515.0	8.276
515.5	8.283
516.0	8.297
516.5	8.307
517.0	8.316
517.5	8.318
518.0	8.320
518.5	8.322
519.0	8.329
519.5	8.333
520.0	8.341
520.5	8.347
521.0	8.354
521.5	8.366
522.0	8.380
522.5	8.389
523.0	8.396
523.5	8.401
524.0	8.412
524.5	8.419
525.0	8.425
525.5	8.434
526.0	8.439
526.5	8.446
527.0	8.450
527.5	8.457
528.0	8.456
528.5	8.459
529.0	8.468
529.5	8.470
530.0	8.477
530.5	8.495
531.0	8.507
531.5	8.514
532.0	8.515
532.5	8.523
533.0	8.533
533.5	8.544
534.0	8.550
534.5	8.551
535.0	8.547
535.5	8.556
536.0	8.559
536.5	8.565
537.0	8.569
537.5	8.581
538.0	8.598
538.5	8.608
539.0	8.620
539.5	8.626
540.0	8.621
540.5	8.625
541.0	8.620
541.5	8.619
542.0	8.618
542.5	8.616
543.0	8.612
543.5	8.606
544.0	8.614
544.5	8.624
545.0	8.633
545.5	8.649
546.0	8.658
546.5	8.667
547.0	8.667
547.5	8.665
548.0	8.665
548.5	8.666
549.0	8.668
549.5	8.665
550.0	8.667
550.5	8.671
551.0	8.678
551.5	8.683
552.0	8.684
552.5	8.691
553.0	8.695
553.5	8.701
554.0	8.703
554.5	8.697
555.0	8.690
555.5	8.687
556.0	8.694
556.5	8.697
557.0	8.700
557.5	8.700
558.0	8.692
558.5	8.695
559.0	8.697
559.5	8.695
560.0	8.690
560.5	8.686
561.0	8.691
561.5	8.686
562.0	8.681
562.5	8.674
563.0	8.677
563.5	8.685
564.0	8.689
564.5	8.693
565.0	8.698
565.5	8.701
566.0	8.707
566.5	8.702
567.0	8.688
567.5	8.678
568.0	8.681
568.5	8.680
569.0	8.669
569.5	8.665
570.0	8.664
570.5	8.662
571.0	8.664
571.5	8.666
572.0	8.656
572.5	8.645
573.0	8.645
573.5	8.630
574.0	8.624
574.5	8.621
575.0	8.610
575.5	8.598
576.0	8.589
576.5	8.580
577.0	8.574
577.5	8.557
578.0	8.542
578.5	8.526
579.0	8.525
579.5	8.522
580.0	8.508
580.5	8.497
581.0	8.479
581.5	8.467
582.0	8.456
582.5	8.445
583.0	8.432
583.5	8.419
584.0	8.410
584.5	8.398
585.0	8.382
585.5	8.367
586.0	8.351
586.5	8.338
587.0	8.323
587.5	8.313
588.0	8.299
588.5	8.285
589.0	8.262
589.5	8.241
590.0	8.224
590.5	8.210
591.0	8.193
591.5	8.176
592.0	8.152
592.5	8.125
593.0	8.099
593.5	8.075
594.0	8.049
594.5	8.031
595.0	8.016
595.5	8.005
596.0	7.995
596.5	7.990
597.0	7.973
597.5	7.952
598.0	7.929
598.5	7.909
599.0	7.890
599.5	7.859
600.0	7.828
600.5	7.799
601.0	7.778
601.5	7.759
602.0	7.735
602.5	7.706
603.0	7.683
603.5	7.666
604.0	7.647
604.5	7.621
605.0	7.599
605.5	7.577
606.0	7.556
606.5	7.527
607.0	7.498
607.5	7.468
608.0	7.440
608.5	7.418
609.0	7.395
609.5	7.372
610.0	7.354
610.5	7.337
611.0	7.311
611.5	7.288
612.0	7.271
612.5	7.246
613.0	7.216
613.5	7.191
614.0	7.166
614.5	7.139
615.0	7.112
615.5	7.092
616.0	7.065
616.5	7.045
617.0	7.022
617.5	6.995
618.0	6.964
618.5	6.938
619.0	6.912
619.5	6.889
620.0	6.866
620.5	6.844
621.0	6.812
621.5	6.785
622.0	6.760
622.5	6.735
623.0	6.707
623.5	6.688
624.0	6.662
624.5	6.645
625.0	6.626
625.5	6.602
626.0	6.575
626.5	6.543
627.0	6.515
627.5	6.486
628.0	6.463
628.5	6.441
629.0	6.416
629.5	6.396
630.0	6.382
630.5	6.356
631.0	6.329
631.5	6.293
632.0	6.259
632.5	6.227
633.0	6.202
633.5	6.175
634.0	6.154
634.5	6.134
635.0	6.116
635.5	6.089
636.0	6.059
636.5	6.038
637.0	6.012
637.5	5.993
638.0	5.976
638.5	5.958
639.0	5.938
639.5	5.912
640.0	5.882
640.5	5.852
641.0	5.819
641.5	5.796
642.0	5.762
642.5	5.739
643.0	5.718
643.5	5.697
644.0	5.677
644.5	5.646
645.0	5.621
645.5	5.606
646.0	5.582
646.5	5.561
647.0	5.539
647.5	5.520
648.0	5.500
648.5	5.479
649.0	5.453
649.5	5.417
650.0	5.391
650.5	5.366
651.0	5.332
651.5	5.308
652.0	5.275
652.5	5.246
653.0	5.222
653.5	5.198
654.0	5.175
654.5	5.159
655.0	5.146
655.5	5.131
656.0	5.113
656.5	5.094
657.0	5.069
657.5	5.049
658.0	5.024
658.5	4.994
659.0	4.961
659.5	4.935
660.0	4.915
660.5	4.891
661.0	4.876
661.5	4.861
662.0	4.848
662.5	4.833
663.0	4.812
663.5	4.783
664.0	4.752
664.5	4.722
665.0	4.700
665.5	4.670
666.0	4.646
666.5	4.613
667.0	4.590
667.5	4.565
668.0	4.545
668.5	4.522
669.0	4.508
669.5	4.493
670.0	4.478
670.5	4.453
671.0	4.428
671.5	4.398
672.0	4.376
672.5	4.356
673.0	4.332
673.5	4.314
674.0	4.300
674.5	4.292
675.0	4.269
675.5	4.251
676.0	4.233
676.5	4.211
677.0	4.197
677.5	4.178
678.0	4.161
678.5	4.143
679.0	4.125
679.5	4.108
680.0	4.079
680.5	4.065
681.0	4.048
681.5	4.025
682.0	4.006
682.5	3.982
683.0	3.964
683.5	3.938
684.0	3.912
684.5	3.893
685.0	3.876
685.5	3.866
686.0	3.854
686.5	3.841
687.0	3.825
687.5	3.807
688.0	3.792
688.5	3.772
689.0	3.751
689.5	3.738
690.0	3.717
690.5	3.697
691.0	3.676
691.5	3.657
692.0	3.636
692.5	3.616
693.0	3.599
693.5	3.582
694.0	3.564
694.5	3.549
695.0	3.528
695.5	3.513
696.0	3.495
696.5	3.483
697.0	3.471
697.5	3.455
698.0	3.441
698.5	3.427
699.0	3.404
699.5	3.387
700.0	3.365
700.5	3.345
701.0	3.323
701.5	3.307
702.0	3.291
702.5	3.275
703.0	3.262
703.5	3.255
704.0	3.248
704.5	3.245
705.0	3.236
705.5	3.220
706.0	3.201
706.5	3.185
707.0	3.166
707.5	3.141
708.0	3.120
708.5	3.108
709.0	3.096
709.5	3.089
710.0	3.073
710.5	3.057
711.0	3.046
711.5	3.033
712.0	3.018
712.5	3.004
713.0	2.989
713.5	2.981
714.0	2.975
714.5	2.963
715.0	2.947
715.5	2.933
716.0	2.918
716.5	2.898
717.0	2.881
717.5	2.864
718.0	2.846
718.5	2.836
719.0	2.826
719.5	2.813
720.0	2.801
720.5	2.787
721.0	2.777
721.5	2.764
722.0	2.748
722.5	2.733
723.0	2.723
723.5	2.712
724.0	2.700
724.5	2.687
725.0	2.678
725.5	2.670
726.0	2.664
726.5	2.652
727.0	2.638
727.5	2.623
728.0	2.607
728.5	2.594
729.0	2.579
729.5	2.568
730.0	2.564
730.5	2.550
731.0	2.544
731.5	2.525
732.0	2.505
732.5	2.484
733.0	2.461
733.5	2.439
734.0	2.427
734.5	2.417
735.0	2.409
735.5	2.406
736.0	2.403
736.5	2.406
737.0	2.405
737.5	2.395
738.0	2.381
738.5	2.372
739.0	2.361
739.5	2.342
740.0	2.332
740.5	2.317
741.0	2.306
741.5	2.302
742.0	2.291
742.5	2.280
743.0	2.275
743.5	2.274
744.0	2.260
744.5	2.242
745.0	2.226
745.5	2.210
746.0	2.204
746.5	2.198
747.0	2.198
747.5	2.199
748.0	2.200
748.5	2.194
749.0	2.174
749.5	2.151
750.0	2.137
750.5	2.129
751.0	2.126
751.5	2.122
752.0	2.119
752.5	2.116
753.0	2.109
753.5	2.096
754.0	2.084
754.5	2.074
755.0	2.065
755.5	2.054
756.0	2.041
756.5	2.028
757.0	2.016
757.5	2.011
758.0	2.002
758.5	1.997
759.0	1.995
759.5	1.992
760.0	1.979
760.5	1.973
761.0	1.964
761.5	1.951
762.0	1.940
762.5	1.930
763.0	1.913
763.5	1.899
764.0	1.885
764.5	1.870
765.0	1.852
765.5	1.848
766.0	1.851
766.5	1.844
767.0	1.844
767.5	1.836
768.0	1.836
768.5	1.836
769.0	1.829
769.5	1.827
770.0	1.828
770.5	1.830
771.0	1.834
771.5	1.832
772.0	1.826
772.5	1.813
773.0	1.802
773.5	1.784
774.0	1.766
774.5	1.755
775.0	1.742
775.5	1.725
776.0	1.724
776.5	1.717
777.0	1.711
777.5	1.708
778.0	1.700
778.5	1.688
779.0	1.682
779.5	1.673
780.0	1.658
780.5	1.648
781.0	1.644
781.5	1.629
782.0	1.617
782.5	1.616
783.0	1.616
783.5	1.621
784.0	1.629
784.5	1.641
785.0	1.640
785.5	1.639
786.0	1.634
786.5	1.628
787.0	1.611
787.5	1.601
788.0	1.596
788.5	1.590
789.0	1.582
789.5	1.572
790.0	1.553
790.5	1.553
791.0	1.550
791.5	1.544
792.0	1.539
792.5	1.529
793.0	1.526
793.5	1.523
794.0	1.521
794.5	1.514
795.0	1.500
795.5	1.499
796.0	1.490
796.5	1.483
797.0	1.483
797.5	1.474
798.0	1.469
798.5	1.475
799.0	1.481
799.5	1.476
800.0	1.465
800.5	1.462
801.0	1.449
801.5	1.439
802.0	1.431
802.5	1.417
803.0	1.406
803.5	1.408
804.0	1.409
804.5	1.409
805.0	1.421
805.5	1.429
806.0	1.431
806.5	1.434
807.0	1.425
807.5	1.410
808.0	1.402
808.5	1.395
809.0	1.385
809.5	1.377
810.0	1.376
810.5	1.370
811.0	1.358
811.5	1.348
812.0	1.321
812.5	1.313
813.0	1.306
813.5	1.309
814.0	1.306
814.5	1.308
815.0	1.320
815.5	1.327
816.0	1.320
816.5	1.316
817.0	1.306
817.5	1.303
818.0	1.298
818.5	1.292
819.0	1.282
819.5	1.278
820.0	1.272
820.5	1.265
821.0	1.251
821.5	1.245
822.0	1.239
822.5	1.239
823.0	1.241
823.5	1.238
824.0	1.239
824.5	1.236
825.0	1.230
825.5	1.217
826.0	1.204
826.5	1.185
827.0	1.169
827.5	1.153
828.0	1.149
828.5	1.146
829.0	1.139
829.5	1.133
830.0	1.132
830.5	1.132
831.0	1.141
831.5	1.146
832.0	1.158
832.5	1.170
833.0	1.185
833.5	1.184
834.0	1.174
834.5	1.164
835.0	1.149
835.5	1.134
836.0	1.121
836.5	1.111
837.0	1.114
837.5	1.118
838.0	1.118
838.5	1.115
839.0	1.118
839.5	1.116
840.0	1.110
840.5	1.106
841.0	1.089
841.5	1.081
842.0	1.086
842.5	1.092
843.0	1.088
843.5	1.081
844.0	1.092
844.5	1.085
845.0	1.073
845.5	1.074
846.0	1.067
846.5	1.069
847.0	1.082
847.5	1.082
848.0	1.083
848.5	1.086
849.0	1.083
849.5	1.068
850.0	1.060


Sample 7
4/14/2025 4:20 PM
Wavelength (nm)	10mm Absorbance
//WLCalib: Shift 	0.11000	
//WLCalib: 261S 	0.08000	
//WLCalib: 362S 	-0.10000	
//WLCalib: 484S 	-0.09000	
//WLCalib: 529S 	0.30000	
//WLCalib: 823S 	-0.07000	
//QSpecEnd: 
190.0	10.505
190.5	11.555
191.0	12.423
191.5	13.551
192.0	14.512
192.5	15.330
193.0	15.684
193.5	16.023
194.0	16.188
194.5	16.005
195.0	15.469
195.5	14.614
196.0	13.963
196.5	13.353
197.0	12.664
197.5	11.995
198.0	11.285
198.5	10.734
199.0	10.254
199.5	9.754
200.0	9.231
200.5	8.750
201.0	8.341
201.5	7.964
202.0	7.640
202.5	7.339
203.0	7.142
203.5	6.969
204.0	6.836
204.5	6.733
205.0	6.624
205.5	6.554
206.0	6.495
206.5	6.423
207.0	6.382
207.5	6.348
208.0	6.310
208.5	6.271
209.0	6.236
209.5	6.206
210.0	6.174
210.5	6.162
211.0	6.138
211.5	6.129
212.0	6.125
212.5	6.119
213.0	6.109
213.5	6.091
214.0	6.091
214.5	6.096
215.0	6.103
215.5	6.104
216.0	6.097
216.5	6.089
217.0	6.084
217.5	6.062
218.0	6.042
218.5	6.031
219.0	6.030
219.5	6.034
220.0	6.029
220.5	6.024
221.0	6.011
221.5	6.011
222.0	6.009
222.5	5.993
223.0	5.980
223.5	5.972
224.0	5.959
224.5	5.951
225.0	5.945
225.5	5.934
226.0	5.921
226.5	5.913
227.0	5.892
227.5	5.867
228.0	5.846
228.5	5.826
229.0	5.810
229.5	5.799
230.0	5.792
230.5	5.792
231.0	5.794
231.5	5.798
232.0	5.805
232.5	5.812
233.0	5.817
233.5	5.817
234.0	5.817
234.5	5.815
235.0	5.812
235.5	5.810
236.0	5.813
236.5	5.813
237.0	5.814
237.5	5.813
238.0	5.809
238.5	5.809
239.0	5.809
239.5	5.808
240.0	5.803
240.5	5.800
241.0	5.799
241.5	5.794
242.0	5.791
242.5	5.787
243.0	5.786
243.5	5.792
244.0	5.803
244.5	5.813
245.0	5.816
245.5	5.814
246.0	5.812
246.5	5.809
247.0	5.803
247.5	5.798
248.0	5.800
248.5	5.808
249.0	5.820
249.5	5.830
250.0	5.833
250.5	5.836
251.0	5.835
251.5	5.836
252.0	5.831
252.5	5.831
253.0	5.833
253.5	5.844
254.0	5.850
254.5	5.858
255.0	5.863
255.5	5.867
256.0	5.860
256.5	5.850
257.0	5.838
257.5	5.823
258.0	5.805
258.5	5.792
259.0	5.771
259.5	5.755
260.0	5.745
260.5	5.738
261.0	5.728
261.5	5.729
262.0	5.741
262.5	5.744
263.0	5.747
263.5	5.752
264.0	5.753
264.5	5.748
265.0	5.743
265.5	5.729
266.0	5.711
266.5	5.700
267.0	5.691
267.5	5.675
268.0	5.658
268.5	5.649
269.0	5.642
269.5	5.629
270.0	5.621
270.5	5.610
271.0	5.595
271.5	5.581
272.0	5.573
272.5	5.561
273.0	5.544
273.5	5.535
274.0	5.524
274.5	5.513
275.0	5.506
275.5	5.493
276.0	5.483
276.5	5.473
277.0	5.466
277.5	5.451
278.0	5.436
278.5	5.425
279.0	5.413
279.5	5.399
280.0	5.383
280.5	5.369
281.0	5.358
281.5	5.341
282.0	5.333
282.5	5.320
283.0	5.307
283.5	5.299
284.0	5.291
284.5	5.281
285.0	5.270
285.5	5.257
286.0	5.244
286.5	5.234
287.0	5.232
287.5	5.221
288.0	5.212
288.5	5.211
289.0	5.207
289.5	5.201
290.0	5.193
290.5	5.183
291.0	5.177
291.5	5.170
292.0	5.168
292.5	5.168
293.0	5.170
293.5	5.172
294.0	5.164
294.5	5.163
295.0	5.159
295.5	5.152
296.0	5.146
296.5	5.140
297.0	5.138
297.5	5.142
298.0	5.143
298.5	5.142
299.0	5.140
299.5	5.151
300.0	5.156
300.5	5.159
301.0	5.161
301.5	5.166
302.0	5.166
302.5	5.173
303.0	5.177
303.5	5.179
304.0	5.185
304.5	5.185
305.0	5.186
305.5	5.186
306.0	5.186
306.5	5.187
307.0	5.182
307.5	5.182
308.0	5.178
308.5	5.175
309.0	5.177
309.5	5.173
310.0	5.175
310.5	5.174
311.0	5.171
311.5	5.168
312.0	5.165
312.5	5.162
313.0	5.161
313.5	5.162
314.0	5.165
314.5	5.172
315.0	5.178
315.5	5.185
316.0	5.186
316.5	5.195
317.0	5.199
317.5	5.206
318.0	5.206
318.5	5.204
319.0	5.200
319.5	5.202
320.0	5.199
320.5	5.198
321.0	5.201
321.5	5.210
322.0	5.213
322.5	5.220
323.0	5.216
323.5	5.216
324.0	5.216
324.5	5.213
325.0	5.210
325.5	5.212
326.0	5.221
326.5	5.220
327.0	5.216
327.5	5.211
328.0	5.205
328.5	5.209
329.0	5.208
329.5	5.207
330.0	5.206
330.5	5.209
331.0	5.215
331.5	5.208
332.0	5.204
332.5	5.205
333.0	5.207
333.5	5.213
334.0	5.215
334.5	5.220
335.0	5.222
335.5	5.226
336.0	5.230
336.5	5.223
337.0	5.223
337.5	5.221
338.0	5.215
338.5	5.213
339.0	5.211
339.5	5.211
340.0	5.211
340.5	5.212
341.0	5.208
341.5	5.207
342.0	5.210
342.5	5.209
343.0	5.213
343.5	5.212
344.0	5.212
344.5	5.207
345.0	5.205
345.5	5.204
346.0	5.199
346.5	5.199
347.0	5.199
347.5	5.203
348.0	5.203
348.5	5.196
349.0	5.195
349.5	5.192
350.0	5.197
350.5	5.202
351.0	5.208
351.5	5.207
352.0	5.212
352.5	5.212
353.0	5.204
353.5	5.195
354.0	5.186
354.5	5.178
355.0	5.173
355.5	5.168
356.0	5.158
356.5	5.147
357.0	5.142
357.5	5.135
358.0	5.133
358.5	5.136
359.0	5.136
359.5	5.136
360.0	5.133
360.5	5.126
361.0	5.117
361.5	5.105
362.0	5.096
362.5	5.089
363.0	5.089
363.5	5.092
364.0	5.098
364.5	5.101
365.0	5.105
365.5	5.104
366.0	5.099
366.5	5.095
367.0	5.087
367.5	5.078
368.0	5.074
368.5	5.067
369.0	5.066
369.5	5.069
370.0	5.065
370.5	5.064
371.0	5.063
371.5	5.063
372.0	5.062
372.5	5.067
373.0	5.068
373.5	5.064
374.0	5.065
374.5	5.071
375.0	5.067
375.5	5.068
376.0	5.071
376.5	5.072
377.0	5.077
377.5	5.086
378.0	5.089
378.5	5.094
379.0	5.105
379.5	5.119
380.0	5.128
380.5	5.139
381.0	5.151
381.5	5.158
382.0	5.163
382.5	5.169
383.0	5.172
383.5	5.176
384.0	5.181
384.5	5.186
385.0	5.191
385.5	5.199
386.0	5.210
386.5	5.217
387.0	5.225
387.5	5.231
388.0	5.236
388.5	5.242
389.0	5.248
389.5	5.252
390.0	5.253
390.5	5.252
391.0	5.252
391.5	5.249
392.0	5.247
392.5	5.240
393.0	5.238
393.5	5.238
394.0	5.237
394.5	5.235
395.0	5.227
395.5	5.222
396.0	5.215
396.5	5.213
397.0	5.207
397.5	5.199
398.0	5.198
398.5	5.190
399.0	5.180
399.5	5.171
400.0	5.160
400.5	5.149
401.0	5.138
401.5	5.131
402.0	5.116
402.5	5.104
403.0	5.091
403.5	5.073
404.0	5.062
404.5	5.050
405.0	5.040
405.5	5.031
406.0	5.025
406.5	5.015
407.0	5.006
407.5	4.999
408.0	4.986
408.5	4.979
409.0	4.971
409.5	4.959
410.0	4.947
410.5	4.939
411.0	4.927
411.5	4.911
412.0	4.899
412.5	4.891
413.0	4.888
413.5	4.886
414.0	4.883
414.5	4.876
415.0	4.874
415.5	4.869
416.0	4.862
416.5	4.849
417.0	4.836
417.5	4.828
418.0	4.827
418.5	4.823
419.0	4.818
419.5	4.813
420.0	4.811
420.5	4.803
421.0	4.795
421.5	4.787
422.0	4.780
422.5	4.777
423.0	4.773
423.5	4.770
424.0	4.767
424.5	4.766
425.0	4.765
425.5	4.762
426.0	4.758
426.5	4.763
427.0	4.769
427.5	4.777
428.0	4.779
428.5	4.779
429.0	4.779
429.5	4.780
430.0	4.784
430.5	4.782
431.0	4.780
431.5	4.784
432.0	4.786
432.5	4.791
433.0	4.796
433.5	4.796
434.0	4.797
434.5	4.799
435.0	4.804
435.5	4.803
436.0	4.805
436.5	4.810
437.0	4.814
437.5	4.821
438.0	4.833
438.5	4.837
439.0	4.841
439.5	4.847
440.0	4.857
440.5	4.867
441.0	4.875
441.5	4.887
442.0	4.897
442.5	4.904
443.0	4.915
443.5	4.926
444.0	4.938
444.5	4.950
445.0	4.961
445.5	4.971
446.0	4.986
446.5	4.998
447.0	5.010
447.5	5.028
448.0	5.047
448.5	5.068
449.0	5.089
449.5	5.107
450.0	5.129
450.5	5.150
451.0	5.174
451.5	5.192
452.0	5.218
452.5	5.241
453.0	5.267
453.5	5.293
454.0	5.321
454.5	5.345
455.0	5.374
455.5	5.396
456.0	5.422
456.5	5.446
457.0	5.475
457.5	5.503
458.0	5.537
458.5	5.573
459.0	5.601
459.5	5.626
460.0	5.650
460.5	5.677
461.0	5.701
461.5	5.726
462.0	5.756
462.5	5.787
463.0	5.816
463.5	5.849
464.0	5.872
464.5	5.899
465.0	5.930
465.5	5.969
466.0	6.000
466.5	6.034
467.0	6.073
467.5	6.104
468.0	6.128
468.5	6.154
469.0	6.179
469.5	6.203
470.0	6.231
470.5	6.257
471.0	6.279
471.5	6.307
472.0	6.339
472.5	6.364
473.0	6.386
473.5	6.416
474.0	6.447
474.5	6.474
475.0	6.500
475.5	6.523
476.0	6.547
476.5	6.572
477.0	6.597
477.5	6.626
478.0	6.653
478.5	6.679
479.0	6.702
479.5	6.724
480.0	6.742
480.5	6.760
481.0	6.782
481.5	6.802
482.0	6.824
482.5	6.850
483.0	6.871
483.5	6.888
484.0	6.902
484.5	6.913
485.0	6.925
485.5	6.941
486.0	6.961
486.5	6.979
487.0	6.997
487.5	7.017
488.0	7.041
488.5	7.062
489.0	7.082
489.5	7.099
490.0	7.120
490.5	7.139
491.0	7.158
491.5	7.172
492.0	7.187
492.5	7.200
493.0	7.215
493.5	7.231
494.0	7.248
494.5	7.266
495.0	7.285
495.5	7.301
496.0	7.317
496.5	7.331
497.0	7.348
497.5	7.362
498.0	7.381
498.5	7.401
499.0	7.421
499.5	7.435
500.0	7.444
500.5	7.448
501.0	7.451
501.5	7.462
502.0	7.476
502.5	7.487
503.0	7.499
503.5	7.512
504.0	7.526
504.5	7.538
505.0	7.548
505.5	7.560
506.0	7.574
506.5	7.591
507.0	7.606
507.5	7.617
508.0	7.626
508.5	7.632
509.0	7.640
509.5	7.648
510.0	7.660
510.5	7.676
511.0	7.688
511.5	7.698
512.0	7.714
512.5	7.726
513.0	7.730
513.5	7.732
514.0	7.737
514.5	7.743
515.0	7.750
515.5	7.756
516.0	7.764
516.5	7.775
517.0	7.788
517.5	7.797
518.0	7.803
518.5	7.810
519.0	7.819
519.5	7.825
520.0	7.831
520.5	7.840
521.0	7.846
521.5	7.854
522.0	7.865
522.5	7.875
523.0	7.881
523.5	7.886
524.0	7.896
524.5	7.906
525.0	7.915
525.5	7.923
526.0	7.929
526.5	7.934
527.0	7.941
527.5	7.944
528.0	7.947
528.5	7.957
529.0	7.966
529.5	7.976
530.0	7.986
530.5	7.998
531.0	8.010
531.5	8.015
532.0	8.015
532.5	8.021
533.0	8.020
533.5	8.024
534.0	8.023
534.5	8.027
535.0	8.035
535.5	8.045
536.0	8.055
536.5	8.062
537.0	8.071
537.5	8.084
538.0	8.095
538.5	8.104
539.0	8.110
539.5	8.117
540.0	8.118
540.5	8.122
541.0	8.126
541.5	8.128
542.0	8.137
542.5	8.144
543.0	8.151
543.5	8.153
544.0	8.157
544.5	8.163
545.0	8.165
545.5	8.176
546.0	8.180
546.5	8.186
547.0	8.189
547.5	8.192
548.0	8.199
548.5	8.207
549.0	8.213
549.5	8.224
550.0	8.232
550.5	8.240
551.0	8.245
551.5	8.255
552.0	8.260
552.5	8.269
553.0	8.280
553.5	8.280
554.0	8.288
554.5	8.287
555.0	8.277
555.5	8.275
556.0	8.279
556.5	8.278
557.0	8.286
557.5	8.294
558.0	8.306
558.5	8.315
559.0	8.336
559.5	8.334
560.0	8.338
560.5	8.347
561.0	8.353
561.5	8.348
562.0	8.357
562.5	8.354
563.0	8.362
563.5	8.372
564.0	8.380
564.5	8.380
565.0	8.387
565.5	8.392
566.0	8.398
566.5	8.398
567.0	8.398
567.5	8.395
568.0	8.401
568.5	8.406
569.0	8.407
569.5	8.416
570.0	8.422
570.5	8.427
571.0	8.435
571.5	8.439
572.0	8.435
572.5	8.437
573.0	8.443
573.5	8.437
574.0	8.445
574.5	8.452
575.0	8.453
575.5	8.449
576.0	8.449
576.5	8.452
577.0	8.449
577.5	8.453
578.0	8.457
578.5	8.450
579.0	8.453
579.5	8.448
580.0	8.442
580.5	8.432
581.0	8.427
581.5	8.425
582.0	8.421
582.5	8.431
583.0	8.433
583.5	8.432
584.0	8.432
584.5	8.436
585.0	8.432
585.5	8.422
586.0	8.417
586.5	8.412
587.0	8.402
587.5	8.395
588.0	8.385
588.5	8.374
589.0	8.362
589.5	8.357
590.0	8.357
590.5	8.350
591.0	8.349
591.5	8.343
592.0	8.328
592.5	8.313
593.0	8.300
593.5	8.289
594.0	8.274
594.5	8.269
595.0	8.261
595.5	8.250
596.0	8.239
596.5	8.231
597.0	8.212
597.5	8.195
598.0	8.181
598.5	8.165
599.0	8.149
599.5	8.134
600.0	8.117
600.5	8.112
601.0	8.103
601.5	8.091
602.0	8.068
602.5	8.047
603.0	8.030
603.5	8.007
604.0	7.989
604.5	7.977
605.0	7.965
605.5	7.953
606.0	7.939
606.5	7.918
607.0	7.897
607.5	7.875
608.0	7.855
608.5	7.836
609.0	7.814
609.5	7.795
610.0	7.778
610.5	7.763
611.0	7.749
611.5	7.731
612.0	7.713
612.5	7.690
613.0	7.668
613.5	7.649
614.0	7.625
614.5	7.598
615.0	7.575
615.5	7.553
616.0	7.530
616.5	7.508
617.0	7.483
617.5	7.462
618.0	7.437
618.5	7.419
619.0	7.398
619.5	7.375
620.0	7.353
620.5	7.332
621.0	7.298
621.5	7.268
622.0	7.239
622.5	7.217
623.0	7.195
623.5	7.177
624.0	7.159
624.5	7.138
625.0	7.126
625.5	7.107
626.0	7.076
626.5	7.047
627.0	7.024
627.5	7.001
628.0	6.981
628.5	6.959
629.0	6.933
629.5	6.901
630.0	6.875
630.5	6.849
631.0	6.815
631.5	6.782
632.0	6.755
632.5	6.728
633.0	6.702
633.5	6.681
634.0	6.656
634.5	6.631
635.0	6.596
635.5	6.571
636.0	6.541
636.5	6.514
637.0	6.486
637.5	6.463
638.0	6.438
638.5	6.415
639.0	6.393
639.5	6.369
640.0	6.341
640.5	6.319
641.0	6.290
641.5	6.263
642.0	6.233
642.5	6.205
643.0	6.170
643.5	6.146
644.0	6.123
644.5	6.106
645.0	6.092
645.5	6.072
646.0	6.041
646.5	6.020
647.0	5.991
647.5	5.960
648.0	5.937
648.5	5.910
649.0	5.883
649.5	5.857
650.0	5.831
650.5	5.799
651.0	5.766
651.5	5.734
652.0	5.707
652.5	5.684
653.0	5.669
653.5	5.644
654.0	5.626
654.5	5.603
655.0	5.585
655.5	5.559
656.0	5.525
656.5	5.494
657.0	5.471
657.5	5.443
658.0	5.417
658.5	5.390
659.0	5.362
659.5	5.338
660.0	5.322
660.5	5.302
661.0	5.284
661.5	5.269
662.0	5.255
662.5	5.227
663.0	5.200
663.5	5.171
664.0	5.141
664.5	5.115
665.0	5.093
665.5	5.072
666.0	5.049
666.5	5.017
667.0	4.983
667.5	4.944
668.0	4.914
668.5	4.888
669.0	4.866
669.5	4.852
670.0	4.835
670.5	4.822
671.0	4.800
671.5	4.767
672.0	4.734
672.5	4.706
673.0	4.681
673.5	4.663
674.0	4.649
674.5	4.637
675.0	4.616
675.5	4.600
676.0	4.579
676.5	4.554
677.0	4.527
677.5	4.509
678.0	4.491
678.5	4.472
679.0	4.451
679.5	4.423
680.0	4.403
680.5	4.385
681.0	4.365
681.5	4.346
682.0	4.319
682.5	4.304
683.0	4.276
683.5	4.242
684.0	4.214
684.5	4.190
685.0	4.181
685.5	4.169
686.0	4.159
686.5	4.155
687.0	4.139
687.5	4.125
688.0	4.101
688.5	4.073
689.0	4.044
689.5	4.012
690.0	3.987
690.5	3.961
691.0	3.940
691.5	3.922
692.0	3.908
692.5	3.899
693.0	3.882
693.5	3.870
694.0	3.849
694.5	3.828
695.0	3.804
695.5	3.786
696.0	3.763
696.5	3.744
697.0	3.730
697.5	3.708
698.0	3.689
698.5	3.681
699.0	3.658
699.5	3.640
700.0	3.616
700.5	3.597
701.0	3.572
701.5	3.554
702.0	3.537
702.5	3.521
703.0	3.508
703.5	3.500
704.0	3.488
704.5	3.477
705.0	3.461
705.5	3.441
706.0	3.421
706.5	3.402
707.0	3.382
707.5	3.362
708.0	3.337
708.5	3.320
709.0	3.309
709.5	3.301
710.0	3.288
710.5	3.277
711.0	3.267
711.5	3.252
712.0	3.229
712.5	3.213
713.0	3.193
713.5	3.177
714.0	3.168
714.5	3.159
715.0	3.147
715.5	3.136
716.0	3.125
716.5	3.108
717.0	3.083
717.5	3.062
718.0	3.041
718.5	3.020
719.0	3.003
719.5	2.989
720.0	2.971
720.5	2.960
721.0	2.955
721.5	2.944
722.0	2.930
722.5	2.914
723.0	2.907
723.5	2.891
724.0	2.877
724.5	2.861
725.0	2.847
725.5	2.836
726.0	2.828
726.5	2.817
727.0	2.800
727.5	2.794
728.0	2.786
728.5	2.773
729.0	2.758
729.5	2.744
730.0	2.741
730.5	2.728
731.0	2.711
731.5	2.689
732.0	2.664
732.5	2.649
733.0	2.626
733.5	2.604
734.0	2.587
734.5	2.577
735.0	2.575
735.5	2.568
736.0	2.557
736.5	2.551
737.0	2.540
737.5	2.530
738.0	2.514
738.5	2.501
739.0	2.487
739.5	2.472
740.0	2.467
740.5	2.457
741.0	2.450
741.5	2.444
742.0	2.435
742.5	2.429
743.0	2.419
743.5	2.417
744.0	2.402
744.5	2.383
745.0	2.367
745.5	2.352
746.0	2.340
746.5	2.329
747.0	2.322
747.5	2.323
748.0	2.329
748.5	2.329
749.0	2.317
749.5	2.299
750.0	2.280
750.5	2.270
751.0	2.260
751.5	2.245
752.0	2.234
752.5	2.235
753.0	2.229
753.5	2.219
754.0	2.212
754.5	2.197
755.0	2.182
755.5	2.176
756.0	2.165
756.5	2.148
757.0	2.140
757.5	2.136
758.0	2.119
758.5	2.108
759.0	2.105
759.5	2.094
760.0	2.078
760.5	2.066
761.0	2.051
761.5	2.038
762.0	2.028
762.5	2.013
763.0	1.999
763.5	1.992
764.0	1.987
764.5	1.975
765.0	1.961
765.5	1.952
766.0	1.946
766.5	1.940
767.0	1.932
767.5	1.928
768.0	1.929
768.5	1.928
769.0	1.919
769.5	1.912
770.0	1.914
770.5	1.912
771.0	1.923
771.5	1.923
772.0	1.917
772.5	1.914
773.0	1.905
773.5	1.890
774.0	1.874
774.5	1.861
775.0	1.852
775.5	1.839
776.0	1.838
776.5	1.819
777.0	1.804
777.5	1.795
778.0	1.780
778.5	1.765
779.0	1.759
779.5	1.749
780.0	1.746
780.5	1.741
781.0	1.733
781.5	1.721
782.0	1.712
782.5	1.712
783.0	1.709
783.5	1.706
784.0	1.711
784.5	1.711
785.0	1.706
785.5	1.698
786.0	1.684
786.5	1.672
787.0	1.655
787.5	1.647
788.0	1.641
788.5	1.632
789.0	1.628
789.5	1.627
790.0	1.611
790.5	1.619
791.0	1.614
791.5	1.614
792.0	1.610
792.5	1.604
793.0	1.604
793.5	1.600
794.0	1.594
794.5	1.584
795.0	1.561
795.5	1.558
796.0	1.541
796.5	1.537
797.0	1.533
797.5	1.529
798.0	1.529
798.5	1.533
799.0	1.540
799.5	1.532
800.0	1.523
800.5	1.520
801.0	1.510
801.5	1.500
802.0	1.484
802.5	1.461
803.0	1.441
803.5	1.435
804.0	1.439
804.5	1.434
805.0	1.444
805.5	1.461
806.0	1.475
806.5	1.486
807.0	1.487
807.5	1.473
808.0	1.458
808.5	1.447
809.0	1.434
809.5	1.416
810.0	1.411
810.5	1.408
811.0	1.399
811.5	1.397
812.0	1.381
812.5	1.366
813.0	1.349
813.5	1.346
814.0	1.346
814.5	1.349
815.0	1.360
815.5	1.366
816.0	1.364
816.5	1.357
817.0	1.342
817.5	1.330
818.0	1.313
818.5	1.304
819.0	1.300
819.5	1.301
820.0	1.304
820.5	1.313
821.0	1.317
821.5	1.315
822.0	1.314
822.5	1.317
823.0	1.315
823.5	1.308
824.0	1.299
824.5	1.291
825.0	1.280
825.5	1.267
826.0	1.253
826.5	1.237
827.0	1.222
827.5	1.209
828.0	1.202
828.5	1.200
829.0	1.184
829.5	1.180
830.0	1.175
830.5	1.178
831.0	1.188
831.5	1.193
832.0	1.196
832.5	1.203
833.0	1.215
833.5	1.215
834.0	1.204
834.5	1.194
835.0	1.185
835.5	1.174
836.0	1.156
836.5	1.146
837.0	1.152
837.5	1.157
838.0	1.164
838.5	1.170
839.0	1.172
839.5	1.162
840.0	1.152
840.5	1.134
841.0	1.111
841.5	1.099
842.0	1.102
842.5	1.108
843.0	1.115
843.5	1.109
844.0	1.112
844.5	1.105
845.0	1.090
845.5	1.087
846.0	1.079
846.5	1.077
847.0	1.095
847.5	1.103
848.0	1.099
848.5	1.098
849.0	1.099
849.5	1.090
850.0	1.070


Sample 8
4/14/2025 4:21 PM
Wavelength (nm)	10mm Absorbance
//WLCalib: Shift 	0.11000	
//WLCalib: 261S 	0.08000	
//WLCalib: 362S 	-0.10000	
//WLCalib: 484S 	-0.09000	
//WLCalib: 529S 	0.30000	
//WLCalib: 823S 	-0.07000	
//QSpecEnd: 
190.0	9.761
190.5	10.988
191.0	12.288
191.5	13.403
192.0	14.325
192.5	14.884
193.0	15.346
193.5	15.822
194.0	16.139
194.5	15.873
195.0	15.336
195.5	14.816
196.0	14.027
196.5	13.282
197.0	12.497
197.5	11.882
198.0	11.411
198.5	10.886
199.0	10.321
199.5	9.719
200.0	9.246
200.5	8.773
201.0	8.355
201.5	7.960
202.0	7.631
202.5	7.372
203.0	7.172
203.5	7.013
204.0	6.876
204.5	6.769
205.0	6.683
205.5	6.620
206.0	6.550
206.5	6.479
207.0	6.417
207.5	6.366
208.0	6.329
208.5	6.298
209.0	6.275
209.5	6.259
210.0	6.251
210.5	6.255
211.0	6.248
211.5	6.230
212.0	6.205
212.5	6.192
213.0	6.158
213.5	6.138
214.0	6.130
214.5	6.119
215.0	6.123
215.5	6.137
216.0	6.138
216.5	6.143
217.0	6.137
217.5	6.130
218.0	6.104
218.5	6.099
219.0	6.093
219.5	6.085
220.0	6.074
220.5	6.068
221.0	6.060
221.5	6.056
222.0	6.045
222.5	6.036
223.0	6.025
223.5	6.021
224.0	6.025
224.5	6.017
225.0	6.005
225.5	6.000
226.0	5.989
226.5	5.972
227.0	5.958
227.5	5.935
228.0	5.915
228.5	5.897
229.0	5.882
229.5	5.864
230.0	5.859
230.5	5.861
231.0	5.857
231.5	5.871
232.0	5.882
232.5	5.887
233.0	5.888
233.5	5.886
234.0	5.884
234.5	5.878
235.0	5.875
235.5	5.870
236.0	5.868
236.5	5.878
237.0	5.877
237.5	5.874
238.0	5.874
238.5	5.880
239.0	5.882
239.5	5.882
240.0	5.879
240.5	5.876
241.0	5.873
241.5	5.867
242.0	5.860
242.5	5.854
243.0	5.852
243.5	5.860
244.0	5.868
244.5	5.876
245.0	5.879
245.5	5.883
246.0	5.885
246.5	5.881
247.0	5.876
247.5	5.867
248.0	5.870
248.5	5.878
249.0	5.887
249.5	5.897
250.0	5.906
250.5	5.910
251.0	5.910
251.5	5.909
252.0	5.905
252.5	5.902
253.0	5.908
253.5	5.912
254.0	5.921
254.5	5.930
255.0	5.932
255.5	5.929
256.0	5.918
256.5	5.905
257.0	5.894
257.5	5.882
258.0	5.870
258.5	5.857
259.0	5.844
259.5	5.831
260.0	5.818
260.5	5.811
261.0	5.803
261.5	5.801
262.0	5.808
262.5	5.812
263.0	5.812
263.5	5.813
264.0	5.812
264.5	5.809
265.0	5.802
265.5	5.787
266.0	5.775
266.5	5.757
267.0	5.748
267.5	5.732
268.0	5.721
268.5	5.719
269.0	5.714
269.5	5.710
270.0	5.699
270.5	5.679
271.0	5.667
271.5	5.646
272.0	5.636
272.5	5.618
273.0	5.605
273.5	5.597
274.0	5.589
274.5	5.582
275.0	5.568
275.5	5.563
276.0	5.555
276.5	5.548
277.0	5.539
277.5	5.522
278.0	5.509
278.5	5.494
279.0	5.479
279.5	5.464
280.0	5.449
280.5	5.440
281.0	5.424
281.5	5.411
282.0	5.397
282.5	5.384
283.0	5.374
283.5	5.364
284.0	5.356
284.5	5.347
285.0	5.335
285.5	5.326
286.0	5.315
286.5	5.303
287.0	5.298
287.5	5.291
288.0	5.283
288.5	5.278
289.0	5.269
289.5	5.263
290.0	5.254
290.5	5.245
291.0	5.236
291.5	5.231
292.0	5.233
292.5	5.232
293.0	5.231
293.5	5.231
294.0	5.230
294.5	5.231
295.0	5.229
295.5	5.218
296.0	5.210
296.5	5.204
297.0	5.200
297.5	5.195
298.0	5.197
298.5	5.204
299.0	5.210
299.5	5.220
300.0	5.230
300.5	5.228
301.0	5.234
301.5	5.233
302.0	5.230
302.5	5.229
303.0	5.233
303.5	5.235
304.0	5.237
304.5	5.241
305.0	5.246
305.5	5.249
306.0	5.254
306.5	5.250
307.0	5.247
307.5	5.243
308.0	5.239
308.5	5.236
309.0	5.234
309.5	5.234
310.0	5.236
310.5	5.237
311.0	5.238
311.5	5.241
312.0	5.245
312.5	5.245
313.0	5.248
313.5	5.247
314.0	5.248
314.5	5.252
315.0	5.252
315.5	5.254
316.0	5.256
316.5	5.261
317.0	5.259
317.5	5.258
318.0	5.258
318.5	5.253
319.0	5.255
319.5	5.257
320.0	5.259
320.5	5.266
321.0	5.273
321.5	5.279
322.0	5.280
322.5	5.280
323.0	5.273
323.5	5.270
324.0	5.271
324.5	5.275
325.0	5.278
325.5	5.282
326.0	5.288
326.5	5.287
327.0	5.287
327.5	5.281
328.0	5.279
328.5	5.282
329.0	5.284
329.5	5.287
330.0	5.283
330.5	5.286
331.0	5.289
331.5	5.285
332.0	5.284
332.5	5.283
333.0	5.288
333.5	5.291
334.0	5.287
334.5	5.288
335.0	5.282
335.5	5.288
336.0	5.289
336.5	5.288
337.0	5.287
337.5	5.290
338.0	5.290
338.5	5.284
339.0	5.280
339.5	5.278
340.0	5.275
340.5	5.275
341.0	5.273
341.5	5.272
342.0	5.276
342.5	5.279
343.0	5.282
343.5	5.285
344.0	5.288
344.5	5.284
345.0	5.284
345.5	5.279
346.0	5.275
346.5	5.267
347.0	5.264
347.5	5.263
348.0	5.264
348.5	5.267
349.0	5.269
349.5	5.269
350.0	5.269
350.5	5.275
351.0	5.276
351.5	5.271
352.0	5.272
352.5	5.272
353.0	5.270
353.5	5.267
354.0	5.261
354.5	5.250
355.0	5.240
355.5	5.238
356.0	5.228
356.5	5.220
357.0	5.220
357.5	5.219
358.0	5.219
358.5	5.221
359.0	5.220
359.5	5.214
360.0	5.207
360.5	5.199
361.0	5.188
361.5	5.175
362.0	5.166
362.5	5.162
363.0	5.159
363.5	5.161
364.0	5.162
364.5	5.163
365.0	5.166
365.5	5.168
366.0	5.169
366.5	5.163
367.0	5.158
367.5	5.152
368.0	5.147
368.5	5.141
369.0	5.141
369.5	5.139
370.0	5.140
370.5	5.142
371.0	5.141
371.5	5.136
372.0	5.134
372.5	5.131
373.0	5.131
373.5	5.126
374.0	5.129
374.5	5.132
375.0	5.139
375.5	5.141
376.0	5.144
376.5	5.147
377.0	5.150
377.5	5.155
378.0	5.159
378.5	5.163
379.0	5.175
379.5	5.181
380.0	5.187
380.5	5.190
381.0	5.198
381.5	5.201
382.0	5.205
382.5	5.212
383.0	5.221
383.5	5.233
384.0	5.248
384.5	5.258
385.0	5.269
385.5	5.282
386.0	5.298
386.5	5.305
387.0	5.314
387.5	5.318
388.0	5.322
388.5	5.326
389.0	5.332
389.5	5.333
390.0	5.329
390.5	5.329
391.0	5.334
391.5	5.333
392.0	5.335
392.5	5.334
393.0	5.337
393.5	5.334
394.0	5.333
394.5	5.329
395.0	5.321
395.5	5.320
396.0	5.318
396.5	5.319
397.0	5.317
397.5	5.311
398.0	5.311
398.5	5.301
399.0	5.290
399.5	5.279
400.0	5.267
400.5	5.253
401.0	5.241
401.5	5.232
402.0	5.216
402.5	5.201
403.0	5.191
403.5	5.176
404.0	5.164
404.5	5.150
405.0	5.135
405.5	5.126
406.0	5.118
406.5	5.110
407.0	5.097
407.5	5.088
408.0	5.078
408.5	5.066
409.0	5.052
409.5	5.031
410.0	5.012
410.5	4.999
411.0	4.987
411.5	4.973
412.0	4.963
412.5	4.961
413.0	4.958
413.5	4.957
414.0	4.960
414.5	4.954
415.0	4.950
415.5	4.944
416.0	4.937
416.5	4.924
417.0	4.910
417.5	4.899
418.0	4.890
418.5	4.886
419.0	4.883
419.5	4.879
420.0	4.880
420.5	4.875
421.0	4.871
421.5	4.866
422.0	4.858
422.5	4.855
423.0	4.852
423.5	4.849
424.0	4.843
424.5	4.843
425.0	4.840
425.5	4.834
426.0	4.832
426.5	4.835
427.0	4.839
427.5	4.844
428.0	4.845
428.5	4.841
429.0	4.837
429.5	4.834
430.0	4.832
430.5	4.827
431.0	4.829
431.5	4.832
432.0	4.831
432.5	4.831
433.0	4.833
433.5	4.830
434.0	4.827
434.5	4.826
435.0	4.824
435.5	4.819
436.0	4.820
436.5	4.819
437.0	4.817
437.5	4.818
438.0	4.823
438.5	4.827
439.0	4.829
439.5	4.830
440.0	4.830
440.5	4.831
441.0	4.833
441.5	4.834
442.0	4.841
442.5	4.845
443.0	4.853
443.5	4.867
444.0	4.877
444.5	4.887
445.0	4.894
445.5	4.899
446.0	4.906
446.5	4.913
447.0	4.926
447.5	4.934
448.0	4.945
448.5	4.961
449.0	4.977
449.5	4.993
450.0	5.010
450.5	5.027
451.0	5.050
451.5	5.073
452.0	5.095
452.5	5.114
453.0	5.135
453.5	5.158
454.0	5.181
454.5	5.203
455.0	5.230
455.5	5.254
456.0	5.279
456.5	5.305
457.0	5.332
457.5	5.364
458.0	5.397
458.5	5.427
459.0	5.453
459.5	5.479
460.0	5.506
460.5	5.532
461.0	5.559
461.5	5.588
462.0	5.622
462.5	5.657
463.0	5.687
463.5	5.718
464.0	5.748
464.5	5.781
465.0	5.817
465.5	5.856
466.0	5.895
466.5	5.934
467.0	5.974
467.5	6.008
468.0	6.036
468.5	6.066
469.0	6.094
469.5	6.123
470.0	6.153
470.5	6.186
471.0	6.212
471.5	6.243
472.0	6.276
472.5	6.306
473.0	6.335
473.5	6.367
474.0	6.399
474.5	6.431
475.0	6.462
475.5	6.493
476.0	6.517
476.5	6.545
477.0	6.573
477.5	6.599
478.0	6.627
478.5	6.654
479.0	6.679
479.5	6.705
480.0	6.726
480.5	6.751
481.0	6.776
481.5	6.803
482.0	6.826
482.5	6.851
483.0	6.872
483.5	6.891
484.0	6.906
484.5	6.920
485.0	6.930
485.5	6.946
486.0	6.965
486.5	6.984
487.0	7.006
487.5	7.031
488.0	7.054
488.5	7.076
489.0	7.099
489.5	7.119
490.0	7.138
490.5	7.155
491.0	7.174
491.5	7.191
492.0	7.211
492.5	7.228
493.0	7.245
493.5	7.264
494.0	7.282
494.5	7.301
495.0	7.318
495.5	7.336
496.0	7.355
496.5	7.369
497.0	7.392
497.5	7.408
498.0	7.426
498.5	7.442
499.0	7.454
499.5	7.467
500.0	7.480
500.5	7.490
501.0	7.502
501.5	7.513
502.0	7.536
502.5	7.548
503.0	7.565
503.5	7.579
504.0	7.593
504.5	7.604
505.0	7.618
505.5	7.627
506.0	7.641
506.5	7.649
507.0	7.662
507.5	7.670
508.0	7.683
508.5	7.696
509.0	7.707
509.5	7.719
510.0	7.733
510.5	7.748
511.0	7.770
511.5	7.779
512.0	7.788
512.5	7.795
513.0	7.802
513.5	7.803
514.0	7.808
514.5	7.811
515.0	7.813
515.5	7.820
516.0	7.833
516.5	7.846
517.0	7.860
517.5	7.874
518.0	7.882
518.5	7.888
519.0	7.900
519.5	7.897
520.0	7.898
520.5	7.901
521.0	7.908
521.5	7.923
522.0	7.935
522.5	7.948
523.0	7.957
523.5	7.962
524.0	7.972
524.5	7.975
525.0	7.983
525.5	7.990
526.0	7.999
526.5	8.005
527.0	8.011
527.5	8.018
528.0	8.023
528.5	8.025
529.0	8.035
529.5	8.042
530.0	8.047
530.5	8.054
531.0	8.068
531.5	8.076
532.0	8.085
532.5	8.093
533.0	8.104
533.5	8.110
534.0	8.109
534.5	8.111
535.0	8.110
535.5	8.114
536.0	8.121
536.5	8.130
537.0	8.139
537.5	8.148
538.0	8.167
538.5	8.172
539.0	8.180
539.5	8.187
540.0	8.191
540.5	8.197
541.0	8.197
541.5	8.205
542.0	8.211
542.5	8.214
543.0	8.224
543.5	8.229
544.0	8.239
544.5	8.243
545.0	8.249
545.5	8.257
546.0	8.261
546.5	8.268
547.0	8.268
547.5	8.271
548.0	8.278
548.5	8.290
549.0	8.305
549.5	8.317
550.0	8.322
550.5	8.327
551.0	8.332
551.5	8.331
552.0	8.334
552.5	8.343
553.0	8.353
553.5	8.360
554.0	8.373
554.5	8.385
555.0	8.380
555.5	8.382
556.0	8.389
556.5	8.390
557.0	8.402
557.5	8.415
558.0	8.427
558.5	8.434
559.0	8.447
559.5	8.457
560.0	8.456
560.5	8.455
561.0	8.459
561.5	8.461
562.0	8.462
562.5	8.470
563.0	8.485
563.5	8.502
564.0	8.517
564.5	8.532
565.0	8.551
565.5	8.560
566.0	8.566
566.5	8.566
567.0	8.556
567.5	8.548
568.0	8.547
568.5	8.554
569.0	8.563
569.5	8.581
570.0	8.602
570.5	8.619
571.0	8.631
571.5	8.645
572.0	8.650
572.5	8.653
573.0	8.651
573.5	8.658
574.0	8.669
574.5	8.679
575.0	8.685
575.5	8.687
576.0	8.685
576.5	8.689
577.0	8.687
577.5	8.683
578.0	8.683
578.5	8.688
579.0	8.698
579.5	8.709
580.0	8.719
580.5	8.722
581.0	8.724
581.5	8.720
582.0	8.723
582.5	8.728
583.0	8.736
583.5	8.738
584.0	8.728
584.5	8.733
585.0	8.737
585.5	8.737
586.0	8.742
586.5	8.744
587.0	8.756
587.5	8.765
588.0	8.765
588.5	8.770
589.0	8.758
589.5	8.751
590.0	8.742
590.5	8.732
591.0	8.728
591.5	8.721
592.0	8.712
592.5	8.708
593.0	8.703
593.5	8.708
594.0	8.708
594.5	8.704
595.0	8.696
595.5	8.691
596.0	8.686
596.5	8.682
597.0	8.667
597.5	8.657
598.0	8.645
598.5	8.633
599.0	8.624
599.5	8.604
600.0	8.586
600.5	8.576
601.0	8.572
601.5	8.560
602.0	8.542
602.5	8.534
603.0	8.524
603.5	8.511
604.0	8.501
604.5	8.479
605.0	8.469
605.5	8.462
606.0	8.449
606.5	8.423
607.0	8.398
607.5	8.381
608.0	8.364
608.5	8.353
609.0	8.338
609.5	8.313
610.0	8.305
610.5	8.290
611.0	8.267
611.5	8.243
612.0	8.218
612.5	8.198
613.0	8.177
613.5	8.155
614.0	8.134
614.5	8.109
615.0	8.092
615.5	8.072
616.0	8.055
616.5	8.043
617.0	8.020
617.5	8.001
618.0	7.977
618.5	7.952
619.0	7.926
619.5	7.901
620.0	7.874
620.5	7.848
621.0	7.820
621.5	7.790
622.0	7.758
622.5	7.739
623.0	7.707
623.5	7.687
624.0	7.663
624.5	7.646
625.0	7.625
625.5	7.602
626.0	7.579
626.5	7.550
627.0	7.522
627.5	7.496
628.0	7.470
628.5	7.446
629.0	7.416
629.5	7.394
630.0	7.363
630.5	7.333
631.0	7.305
631.5	7.276
632.0	7.240
632.5	7.210
633.0	7.186
633.5	7.151
634.0	7.121
634.5	7.098
635.0	7.069
635.5	7.039
636.0	7.013
636.5	6.991
637.0	6.958
637.5	6.932
638.0	6.910
638.5	6.890
639.0	6.864
639.5	6.839
640.0	6.807
640.5	6.775
641.0	6.751
641.5	6.721
642.0	6.689
642.5	6.661
643.0	6.639
643.5	6.617
644.0	6.586
644.5	6.561
645.0	6.533
645.5	6.511
646.0	6.485
646.5	6.455
647.0	6.424
647.5	6.390
648.0	6.363
648.5	6.336
649.0	6.299
649.5	6.269
650.0	6.238
650.5	6.214
651.0	6.186
651.5	6.157
652.0	6.123
652.5	6.096
653.0	6.076
653.5	6.055
654.0	6.023
654.5	5.996
655.0	5.977
655.5	5.965
656.0	5.941
656.5	5.916
657.0	5.887
657.5	5.856
658.0	5.826
658.5	5.793
659.0	5.755
659.5	5.727
660.0	5.709
660.5	5.688
661.0	5.665
661.5	5.646
662.0	5.620
662.5	5.592
663.0	5.565
663.5	5.532
664.0	5.499
664.5	5.471
665.0	5.447
665.5	5.414
666.0	5.390
666.5	5.354
667.0	5.326
667.5	5.297
668.0	5.271
668.5	5.244
669.0	5.231
669.5	5.216
670.0	5.197
670.5	5.168
671.0	5.139
671.5	5.096
672.0	5.063
672.5	5.030
673.0	4.999
673.5	4.978
674.0	4.968
674.5	4.961
675.0	4.946
675.5	4.925
676.0	4.899
676.5	4.873
677.0	4.846
677.5	4.822
678.0	4.798
678.5	4.775
679.0	4.757
679.5	4.733
680.0	4.712
680.5	4.688
681.0	4.668
681.5	4.648
682.0	4.616
682.5	4.584
683.0	4.554
683.5	4.525
684.0	4.494
684.5	4.470
685.0	4.458
685.5	4.445
686.0	4.440
686.5	4.427
687.0	4.404
687.5	4.380
688.0	4.356
688.5	4.335
689.0	4.308
689.5	4.291
690.0	4.269
690.5	4.248
691.0	4.229
691.5	4.206
692.0	4.181
692.5	4.163
693.0	4.141
693.5	4.127
694.0	4.105
694.5	4.086
695.0	4.057
695.5	4.033
696.0	4.006
696.5	3.986
697.0	3.966
697.5	3.945
698.0	3.924
698.5	3.909
699.0	3.888
699.5	3.870
700.0	3.845
700.5	3.825
701.0	3.802
701.5	3.785
702.0	3.769
702.5	3.750
703.0	3.733
703.5	3.718
704.0	3.705
704.5	3.690
705.0	3.671
705.5	3.652
706.0	3.630
706.5	3.615
707.0	3.601
707.5	3.578
708.0	3.551
708.5	3.529
709.0	3.516
709.5	3.506
710.0	3.489
710.5	3.478
711.0	3.469
711.5	3.456
712.0	3.437
712.5	3.415
713.0	3.392
713.5	3.374
714.0	3.366
714.5	3.354
715.0	3.337
715.5	3.324
716.0	3.305
716.5	3.284
717.0	3.262
717.5	3.245
718.0	3.229
718.5	3.211
719.0	3.193
719.5	3.177
720.0	3.160
720.5	3.140
721.0	3.127
721.5	3.113
722.0	3.101
722.5	3.088
723.0	3.079
723.5	3.062
724.0	3.043
724.5	3.030
725.0	3.016
725.5	3.003
726.0	2.992
726.5	2.977
727.0	2.964
727.5	2.948
728.0	2.934
728.5	2.924
729.0	2.913
729.5	2.906
730.0	2.904
730.5	2.895
731.0	2.884
731.5	2.860
732.0	2.833
732.5	2.806
733.0	2.777
733.5	2.750
734.0	2.735
734.5	2.723
735.0	2.713
735.5	2.706
736.0	2.700
736.5	2.692
737.0	2.684
737.5	2.677
738.0	2.665
738.5	2.648
739.0	2.642
739.5	2.630
740.0	2.617
740.5	2.606
741.0	2.591
741.5	2.578
742.0	2.562
742.5	2.554
743.0	2.546
743.5	2.542
744.0	2.534
744.5	2.525
745.0	2.511
745.5	2.494
746.0	2.480
746.5	2.465
747.0	2.452
747.5	2.448
748.0	2.443
748.5	2.439
749.0	2.423
749.5	2.410
750.0	2.395
750.5	2.386
751.0	2.385
751.5	2.374
752.0	2.365
752.5	2.363
753.0	2.356
753.5	2.347
754.0	2.341
754.5	2.335
755.0	2.318
755.5	2.306
756.0	2.294
756.5	2.274
757.0	2.268
757.5	2.265
758.0	2.256
758.5	2.251
759.0	2.248
759.5	2.237
760.0	2.213
760.5	2.194
761.0	2.174
761.5	2.157
762.0	2.155
762.5	2.144
763.0	2.129
763.5	2.122
764.0	2.116
764.5	2.102
765.0	2.083
765.5	2.066
766.0	2.058
766.5	2.048
767.0	2.039
767.5	2.027
768.0	2.023
768.5	2.021
769.0	2.012
769.5	2.005
770.0	2.007
770.5	2.007
771.0	2.017
771.5	2.009
772.0	1.996
772.5	1.987
773.0	1.979
773.5	1.964
774.0	1.942
774.5	1.932
775.0	1.927
775.5	1.923
776.0	1.930
776.5	1.920
777.0	1.915
777.5	1.910
778.0	1.901
778.5	1.885
779.0	1.875
779.5	1.861
780.0	1.846
780.5	1.839
781.0	1.829
781.5	1.813
782.0	1.802
782.5	1.790
783.0	1.790
783.5	1.792
784.0	1.809
784.5	1.821
785.0	1.822
785.5	1.822
786.0	1.813
786.5	1.796
787.0	1.775
787.5	1.758
788.0	1.751
788.5	1.738
789.0	1.732
789.5	1.724
790.0	1.708
790.5	1.711
791.0	1.709
791.5	1.706
792.0	1.702
792.5	1.692
793.0	1.688
793.5	1.684
794.0	1.680
794.5	1.671
795.0	1.660
795.5	1.653
796.0	1.644
796.5	1.637
797.0	1.629
797.5	1.614
798.0	1.609
798.5	1.615
799.0	1.624
799.5	1.629
800.0	1.622
800.5	1.613
801.0	1.606
801.5	1.588
802.0	1.569
802.5	1.541
803.0	1.520
803.5	1.520
804.0	1.527
804.5	1.540
805.0	1.555
805.5	1.571
806.0	1.578
806.5	1.577
807.0	1.566
807.5	1.548
808.0	1.531
808.5	1.516
809.0	1.507
809.5	1.502
810.0	1.506
810.5	1.502
811.0	1.494
811.5	1.488
812.0	1.468
812.5	1.454
813.0	1.436
813.5	1.426
814.0	1.425
814.5	1.421
815.0	1.428
815.5	1.430
816.0	1.429
816.5	1.422
817.0	1.414
817.5	1.411
818.0	1.406
818.5	1.397
819.0	1.391
819.5	1.386
820.0	1.385
820.5	1.385
821.0	1.384
821.5	1.385
822.0	1.389
822.5	1.396
823.0	1.399
823.5	1.391
824.0	1.386
824.5	1.377
825.0	1.365
825.5	1.349
826.0	1.338
826.5	1.325
827.0	1.308
827.5	1.295
828.0	1.291
828.5	1.288
829.0	1.280
829.5	1.274
830.0	1.265
830.5	1.258
831.0	1.261
831.5	1.257
832.0	1.259
832.5	1.271
833.0	1.288
833.5	1.291
834.0	1.291
834.5	1.286
835.0	1.273
835.5	1.256
836.0	1.237
836.5	1.223
837.0	1.229
837.5	1.232
838.0	1.232
838.5	1.228
839.0	1.226
839.5	1.213
840.0	1.201
840.5	1.184
841.0	1.172
841.5	1.169
842.0	1.179
842.5	1.187
843.0	1.191
843.5	1.187
844.0	1.187
844.5	1.180
845.0	1.158
845.5	1.139
846.0	1.124
846.5	1.114
847.0	1.118
847.5	1.130
848.0	1.132
848.5	1.142
849.0	1.145
849.5	1.129
850.0	1.116

